# Reynolds number time series
# <Re(t)> averaged between 0.000000 and 2050.000000 with sampling frequency 2.000000
# time		 Re_uMag(t)	 <Re_uMag(t)>	 Re_uxMag(t)	 <Re_uxMag(t)>	 Re_uzMag(t)	 <Re_uzMag(t)>	  Re_uRMS(t)	 <Re_uRMS(t)>	 Re_uxRMS(t)	 <Re_uxRMS(t)>	 Re_uzRMS(t)	 <Re_uzRMS(t)>	 
0.000000	 0.000000	 0.000000	 0.000000	 0.000000	 0.000000	 0.000000	 0.000000	 0.000000	 0.000000	 0.000000	 0.000000	 0.000000	 
2.000000	 0.196933	 0.098467	 0.144358	 0.072179	 0.192336	 0.096168	 0.208207	 0.104104	 0.156255	 0.078128	 0.208183	 0.104091	 
4.000000	 0.392374	 0.196436	 0.292886	 0.145673	 0.382987	 0.191774	 0.414587	 0.207598	 0.317040	 0.157683	 0.414538	 0.207574	 
6.000000	 0.596076	 0.296338	 0.450750	 0.221909	 0.581683	 0.289252	 0.629669	 0.313116	 0.487965	 0.240217	 0.629595	 0.313079	 
8.000000	 0.816832	 0.400437	 0.624252	 0.302206	 0.797092	 0.390820	 0.862832	 0.423059	 0.675866	 0.327162	 0.862732	 0.423010	 
10.000000	 1.063602	 0.510964	 0.819304	 0.388272	 1.037999	 0.498683	 1.123582	 0.539813	 0.887183	 0.420370	 1.123452	 0.539750	 
12.000000	 1.345977	 0.630252	 1.043645	 0.481507	 1.313782	 0.615126	 1.422061	 0.665848	 1.130312	 0.521371	 1.421899	 0.665771	 
14.000000	 1.674561	 0.760790	 1.304385	 0.584367	 1.634798	 0.742585	 1.769472	 0.803801	 1.413011	 0.632826	 1.769271	 0.803709	 
16.000000	 2.061344	 0.905296	 1.611685	 0.698394	 2.012752	 0.883714	 2.178469	 0.956542	 1.746409	 0.756422	 2.178224	 0.956433	 
18.000000	 2.520084	 1.066775	 1.976106	 0.825841	 2.461072	 1.041450	 2.663566	 1.127245	 2.141978	 0.894617	 2.663268	 1.127116	 
20.000000	 3.066696	 1.248586	 2.409239	 0.969248	 2.995288	 1.219072	 3.241540	 1.319453	 2.612469	 1.050188	 3.241180	 1.319304	 
22.000000	 3.719657	 1.454509	 2.925221	 1.132171	 3.633422	 1.420268	 3.931851	 1.537153	 3.173436	 1.227076	 3.931416	 1.536980	 
24.000000	 4.500435	 1.688807	 3.540351	 1.317416	 4.396365	 1.649198	 4.757042	 1.784837	 3.842890	 1.428292	 4.756516	 1.784636	 
26.000000	 5.433746	 1.956293	 4.273271	 1.528548	 5.308211	 1.910556	 5.743090	 2.067569	 4.641544	 1.657810	 5.742454	 2.067338	 
28.000000	 6.547791	 2.262378	 5.145056	 1.769649	 6.396495	 2.209619	 6.919651	 2.391041	 5.592986	 1.920155	 6.918883	 2.390774	 
30.000000	 7.874415	 2.613113	 6.179127	 2.045241	 7.692252	 2.552283	 8.320098	 2.761607	 6.723688	 2.220376	 8.319169	 2.761299	 
32.000000	 9.448785	 3.015197	 7.400886	 2.360279	 9.229740	 2.945075	 9.981194	 3.186289	 8.064104	 2.564046	 9.980071	 3.185932	 
34.000000	 11.308569	 3.475932	 8.838436	 2.720093	 11.045645	 3.395107	 11.942195	 3.672728	 9.645124	 2.957225	 11.940837	 3.672316	 
36.000000	 13.492379	 4.003113	 10.517112	 3.130276	 13.177482	 3.909968	 14.243047	 4.229061	 11.498175	 3.406373	 14.241409	 4.228584	 
38.000000	 16.036950	 4.604805	 12.460662	 3.596493	 15.660815	 4.497511	 16.921316	 4.863673	 13.653855	 3.918172	 16.919346	 4.863122	 
40.000000	 18.972174	 5.288965	 14.686906	 4.124176	 18.524912	 5.165482	 20.007372	 5.584802	 16.138083	 4.499251	 20.005021	 5.584165	 
42.000000	 22.315119	 6.062881	 17.202788	 4.718086	 21.786485	 5.920982	 23.517507	 6.399925	 18.967439	 5.156192	 23.514733	 6.399191	 
44.000000	 26.061486	 6.932386	 19.998203	 5.381722	 25.441512	 6.769701	 27.444967	 7.314927	 22.143089	 5.894753	 27.441743	 7.314084	 
46.000000	 30.176098	 7.900874	 23.038987	 6.117207	 29.455889	 7.714959	 31.749770	 8.333045	 25.643744	 6.717627	 31.746072	 8.332084	 
48.000000	 34.584480	 8.968218	 26.260397	 6.922934	 33.756877	 8.756636	 36.349543	 9.453705	 29.418885	 7.625678	 36.345252	 9.452611	 
50.000000	 39.169184	 10.129794	 29.563466	 7.793724	 38.228795	 9.890180	 41.115230	 10.671456	 33.384561	 8.616404	 41.109838	 10.670196	 
52.000000	 43.775247	 11.375922	 32.817389	 8.720526	 42.717107	 11.105992	 45.876324	 11.975340	 37.424907	 9.683385	 45.868271	 11.973829	 
54.000000	 48.227346	 12.692044	 35.870675	 9.690174	 47.043683	 12.389481	 50.438551	 13.349026	 41.402219	 10.816201	 50.424099	 13.347053	 
56.000000	 52.356486	 14.059783	 38.571196	 10.686072	 51.031728	 13.721972	 54.612011	 14.771888	 45.175859	 12.001017	 54.583865	 14.769012	 
58.000000	 56.028283	 15.458733	 40.790880	 11.689565	 54.533590	 15.082360	 58.241710	 16.220882	 48.625730	 13.221840	 58.188042	 16.216313	 
60.000000	 59.163817	 16.868575	 42.460972	 12.681758	 57.453199	 16.449161	 61.230998	 17.672821	 51.677462	 14.462195	 61.135755	 17.665327	 
62.000000	 61.754395	 18.270972	 43.548875	 13.645316	 59.755010	 17.802469	 63.549257	 19.106460	 54.341431	 15.706759	 63.394320	 19.094358	 
64.000000	 63.834182	 19.650847	 44.079556	 14.565852	 61.458879	 19.125390	 65.224076	 20.503963	 56.606960	 16.942551	 64.992957	 20.485225	 
66.000000	 65.488934	 20.997643	 44.120858	 15.434334	 62.625952	 20.404819	 66.324600	 21.851626	 58.519909	 18.159472	 66.006409	 21.824083	 
68.000000	 66.819270	 22.304916	 45.197091	 16.277494	 63.342471	 21.631609	 67.092715	 23.139964	 60.137973	 19.350274	 66.536226	 23.101573	 
70.000000	 67.937193	 23.567592	 46.545617	 17.111918	 63.704081	 22.800288	 67.945903	 24.363342	 61.604927	 20.516362	 66.692879	 24.312442	 
72.000000	 68.941033	 24.783984	 48.737756	 17.929636	 63.804471	 23.908510	 69.121592	 25.519383	 62.900017	 21.656680	 66.582921	 25.454888	 
74.000000	 69.904882	 25.958903	 51.508189	 18.725645	 63.728230	 24.956397	 70.368125	 26.608298	 64.066113	 22.764363	 66.301115	 26.529788	 
76.000000	 70.873675	 27.091630	 54.093604	 19.508320	 63.547155	 25.945904	 71.581433	 27.632240	 65.209935	 23.838876	 65.926595	 27.539963	 
78.000000	 71.863364	 28.187392	 56.499910	 20.333287	 63.318969	 26.880230	 72.742093	 28.597363	 66.262002	 24.880351	 65.521813	 28.489509	 
80.000000	 72.864965	 29.248951	 58.690071	 21.180244	 63.087557	 27.763336	 73.853403	 29.533570	 67.301263	 25.889379	 65.133212	 29.383258	 
82.000000	 73.868196	 30.280629	 60.669985	 22.040246	 62.884085	 28.599544	 74.919919	 30.461306	 68.302233	 26.868226	 64.792835	 30.226343	 
84.000000	 74.857070	 31.283811	 62.450033	 22.913900	 62.728579	 29.393243	 75.932548	 31.391469	 69.241970	 27.835262	 64.520370	 31.023879	 
86.000000	 75.808821	 32.263083	 64.043032	 23.791279	 62.631710	 30.148662	 76.888965	 32.328955	 70.190964	 28.774236	 64.325337	 31.780730	 
88.000000	 76.700890	 33.217529	 65.462672	 24.657878	 62.596635	 30.869728	 77.786516	 33.271393	 71.073030	 29.686044	 64.209245	 32.501364	 
90.000000	 77.555689	 34.150259	 66.722464	 25.533216	 62.620777	 31.559969	 78.622608	 34.210847	 71.888923	 30.571545	 64.167617	 33.189761	 
92.000000	 78.343517	 35.061797	 67.839208	 26.397021	 62.697352	 32.222466	 79.394866	 35.140483	 72.653086	 31.431522	 64.191676	 33.849376	 
94.000000	 79.059459	 35.948112	 68.821813	 27.244122	 62.816742	 32.859847	 80.101219	 36.053996	 73.376580	 32.270272	 64.269831	 34.483135	 
96.000000	 79.703410	 36.819413	 69.677683	 28.080643	 62.968431	 33.474308	 80.740533	 36.948577	 74.027492	 33.100491	 64.389724	 35.093474	 
98.000000	 80.276362	 37.666093	 70.417386	 28.909057	 63.141774	 34.067657	 81.312582	 37.823811	 74.606651	 33.907037	 64.539032	 35.682385	 
100.000000	 80.780349	 38.488557	 71.050902	 29.717122	 63.326805	 34.641366	 81.818159	 38.676517	 75.115513	 34.690212	 64.706292	 36.251481	 
102.000000	 81.218385	 39.294195	 71.587804	 30.504205	 63.514812	 35.196624	 82.259133	 39.504795	 75.556311	 35.450289	 64.881499	 36.802058	 
104.000000	 81.594370	 40.078241	 72.037373	 31.269864	 63.698692	 35.734399	 82.638415	 40.313810	 75.932122	 36.187535	 65.056450	 37.335160	 
106.000000	 81.912956	 40.839055	 72.408665	 32.013834	 63.873084	 36.255486	 82.959861	 41.099597	 76.246852	 36.902228	 65.224880	 37.851636	 
108.000000	 82.179370	 41.577087	 72.710512	 32.736013	 64.034349	 36.760556	 83.228106	 41.861813	 76.505142	 37.594680	 65.382415	 38.352196	 
110.000000	 82.399204	 42.292834	 72.951469	 33.441680	 64.180405	 37.250196	 83.448348	 42.600911	 76.712211	 38.279144	 65.526397	 38.837450	 
112.000000	 82.578200	 42.991144	 73.139729	 34.131733	 64.310487	 37.724938	 83.626111	 43.317406	 76.873658	 38.942692	 65.655616	 39.307944	 
114.000000	 82.721973	 43.670143	 73.282981	 34.800237	 64.424764	 38.185280	 83.766944	 44.011865	 76.995194	 39.584983	 65.769904	 39.764184	 
116.000000	 82.835927	 44.328303	 73.388373	 35.447612	 64.524195	 38.631702	 83.876301	 44.684906	 77.082513	 40.206534	 65.869973	 40.206655	 
118.000000	 82.925113	 44.966283	 73.462450	 36.074366	 64.610264	 39.064678	 83.960584	 45.337385	 77.152006	 40.807913	 65.957130	 40.635830	 
120.000000	 82.994099	 45.584765	 73.511075	 36.681072	 64.684685	 39.484679	 84.031579	 45.971716	 77.199237	 41.389735	 66.032962	 41.052176	 
122.000000	 83.046897	 46.184444	 73.539399	 37.268354	 64.749210	 39.892171	 84.085631	 46.586456	 77.227498	 41.952650	 66.099125	 41.456160	 
124.000000	 83.086941	 46.766022	 73.551866	 37.836872	 64.805488	 40.287620	 84.126256	 47.182326	 77.240823	 42.497333	 66.157202	 41.848240	 
126.000000	 83.117098	 47.330194	 73.552234	 38.387311	 64.854982	 40.671486	 84.156408	 47.760046	 77.242660	 43.024474	 66.208598	 42.228870	 
128.000000	 83.139701	 47.877646	 73.543624	 38.920364	 64.898915	 41.044215	 84.178509	 48.320330	 77.235895	 43.534766	 66.254491	 42.598495	 
130.000000	 83.156603	 48.409047	 73.528576	 39.436726	 64.938269	 41.406246	 84.194496	 48.863878	 77.222884	 44.028900	 66.295823	 42.957546	 
132.000000	 83.169242	 48.925043	 73.509121	 39.937084	 64.973791	 41.758001	 84.205883	 49.391371	 77.205509	 44.512922	 66.333306	 43.306437	 
134.000000	 83.178708	 49.426259	 73.486848	 40.422111	 65.006029	 42.099883	 84.213825	 49.903466	 77.185242	 44.986402	 66.367455	 43.645570	 
136.000000	 83.185806	 49.913293	 73.462978	 40.892460	 65.035366	 42.432282	 84.219182	 50.400795	 77.163204	 45.445559	 66.398626	 43.975325	 
138.000000	 83.191586	 50.386714	 73.438423	 41.348763	 65.062066	 42.755564	 84.222586	 50.883963	 77.140232	 45.891010	 66.427058	 44.296064	 
140.000000	 83.203305	 50.848916	 73.413852	 41.791980	 65.086305	 43.070082	 84.224490	 51.353548	 77.116936	 46.323343	 66.452907	 44.608132	 
142.000000	 83.213505	 51.298424	 73.389734	 42.228403	 65.108211	 43.376167	 84.225217	 51.810099	 77.093747	 46.743123	 66.476288	 44.911856	 
144.000000	 83.222386	 51.735739	 73.366392	 42.652442	 65.127885	 43.674136	 84.224998	 52.254139	 77.070963	 47.150884	 66.497293	 45.207547	 
146.000000	 83.230097	 52.161338	 73.344031	 43.064618	 65.145425	 43.964288	 84.223999	 52.686164	 77.048784	 47.547135	 66.516014	 45.495499	 
148.000000	 83.236753	 52.575677	 73.322771	 43.465429	 65.160932	 44.246910	 84.222348	 53.106646	 77.027338	 47.932361	 66.532555	 45.775993	 
150.000000	 83.242451	 52.979187	 73.302671	 43.855342	 65.174524	 44.522274	 84.220142	 53.516035	 77.006703	 48.307018	 66.547035	 46.049297	 
152.000000	 83.247273	 53.372279	 73.283744	 44.234805	 65.186330	 44.790638	 84.217466	 53.914754	 76.986922	 48.671541	 66.559594	 46.315664	 
154.000000	 83.251298	 53.755343	 73.265973	 44.604238	 65.196495	 45.052251	 84.215911	 54.303211	 76.968016	 49.026341	 66.570386	 46.575340	 
156.000000	 83.254599	 54.128752	 73.249319	 44.964042	 65.205172	 45.307352	 84.217036	 54.681791	 76.949989	 49.371809	 66.579577	 46.828558	 
158.000000	 83.257245	 54.492858	 73.233732	 45.314597	 65.212520	 45.556166	 84.217571	 55.050860	 76.932834	 49.708315	 66.587337	 47.075543	 
160.000000	 83.259303	 54.847999	 73.219150	 45.656261	 65.218696	 45.798914	 84.217591	 55.410768	 76.916537	 50.036209	 66.593839	 47.316510	 
162.000000	 83.260834	 55.194497	 73.205508	 45.989376	 65.223855	 46.035803	 84.217164	 55.761849	 76.901076	 50.355824	 66.599248	 47.551665	 
164.000000	 83.261897	 55.532659	 73.192740	 46.314265	 65.228139	 46.267036	 84.216354	 56.104420	 76.886426	 50.667478	 66.603722	 47.781208	 
166.000000	 83.262542	 55.862776	 73.180777	 46.631234	 65.231681	 46.492806	 84.215216	 56.438784	 76.872556	 50.971469	 66.607405	 48.005329	 
168.000000	 83.262817	 56.185130	 73.169554	 46.940576	 65.234601	 46.713297	 84.213800	 56.765230	 76.859434	 51.268083	 66.610425	 48.224213	 
170.000000	 83.262762	 56.499986	 73.159007	 47.242566	 65.237001	 46.928689	 84.212148	 57.084035	 76.847025	 51.557593	 66.612896	 48.438035	 
172.000000	 83.262413	 56.807600	 73.149076	 47.537470	 65.238973	 47.139152	 84.210297	 57.395461	 76.835290	 51.840255	 66.614915	 48.646964	 
174.000000	 83.261801	 57.108216	 73.139703	 47.825536	 65.240590	 47.344850	 84.208276	 57.699761	 76.824192	 52.118513	 66.616564	 48.851164	 
176.000000	 83.260953	 57.402067	 73.130836	 48.107004	 65.241915	 47.545941	 84.206111	 57.997175	 76.813692	 52.393569	 66.617911	 49.050791	 
178.000000	 83.259895	 57.689376	 73.122427	 48.382101	 65.243001	 47.742575	 84.203825	 58.287933	 76.803753	 52.662381	 66.619012	 49.245993	 
180.000000	 83.258647	 57.970357	 73.114433	 48.651043	 65.243887	 47.934897	 84.201436	 58.572255	 76.794337	 52.925162	 66.619912	 49.436915	 
182.000000	 83.257230	 58.245214	 73.106816	 48.914037	 65.244607	 48.123046	 84.198960	 58.850352	 76.785409	 53.182115	 66.620645	 49.623695	 
184.000000	 83.255661	 58.514144	 73.099542	 49.171279	 65.245188	 48.307155	 84.196411	 59.122424	 76.776936	 53.433434	 66.621239	 49.806464	 
186.000000	 83.253959	 58.777333	 73.092583	 49.422960	 65.245650	 48.487352	 84.193804	 59.388666	 76.768888	 53.679307	 66.621719	 49.985350	 
188.000000	 83.252141	 59.034963	 73.085913	 49.669257	 65.246011	 48.663759	 84.191151	 59.649260	 76.761238	 53.919909	 66.622099	 50.160474	 
190.000000	 83.250224	 59.287205	 73.079785	 49.910344	 65.246283	 48.836494	 84.188464	 59.904386	 76.753960	 54.155412	 66.622396	 50.331952	 
192.000000	 83.248223	 59.534226	 73.074809	 50.146386	 65.246479	 49.005669	 84.185755	 60.154212	 76.747031	 54.385976	 66.622621	 50.499897	 
194.000000	 83.246156	 59.776185	 73.069971	 50.377540	 65.246608	 49.171393	 84.183035	 60.398902	 76.740433	 54.611758	 66.622783	 50.664416	 
196.000000	 83.244036	 60.013234	 73.065270	 50.603958	 65.246678	 49.333769	 84.180317	 60.638611	 76.734148	 54.832907	 66.622889	 50.825613	 
198.000000	 83.241879	 60.245520	 73.060705	 50.825784	 65.246697	 49.492898	 84.177611	 60.873491	 76.728160	 55.049565	 66.622948	 50.983586	 
200.000000	 83.239700	 60.473185	 73.056276	 51.043158	 65.246671	 49.648876	 84.174927	 61.103686	 76.722457	 55.261869	 66.622966	 51.138432	 
202.000000	 83.237512	 60.696365	 73.051985	 51.256214	 65.246606	 49.801795	 84.172275	 61.329333	 76.717025	 55.469951	 66.622947	 51.290241	 
204.000000	 83.235327	 60.915190	 73.047833	 51.465079	 65.246508	 49.951744	 84.169666	 61.550568	 76.711856	 55.673937	 66.622898	 51.439101	 
206.000000	 83.233158	 61.129786	 73.043821	 51.669877	 65.246381	 50.098808	 84.167106	 61.767517	 76.706938	 55.873947	 66.622821	 51.585099	 
208.000000	 83.231014	 61.340273	 73.039953	 51.870728	 65.246231	 50.243069	 84.164605	 61.980305	 76.702263	 56.070098	 66.622723	 51.728314	 
210.000000	 83.228904	 61.546770	 73.036229	 52.067743	 65.246061	 50.384607	 84.162168	 62.189390	 76.697823	 56.262502	 66.622605	 51.868826	 
212.000000	 83.226838	 61.749387	 73.032650	 52.261034	 65.245875	 50.523497	 84.159801	 62.394721	 76.693610	 56.451267	 66.622472	 52.006711	 
214.000000	 83.224823	 61.948234	 73.029219	 52.450706	 65.245676	 50.659813	 84.157509	 62.596229	 76.689617	 56.636496	 66.622326	 52.142041	 
216.000000	 83.222863	 62.143414	 73.025934	 52.636860	 65.245467	 50.793627	 84.155296	 62.794018	 76.685836	 56.818288	 66.622170	 52.274886	 
218.000000	 83.220965	 62.335028	 73.022795	 52.819595	 65.245250	 50.925005	 84.153165	 62.988192	 76.682259	 56.996740	 66.622005	 52.405314	 
220.000000	 83.219132	 62.523173	 73.019802	 53.001254	 65.245028	 51.054014	 84.151119	 63.178849	 76.678880	 57.171943	 66.621834	 52.533391	 
222.000000	 83.217367	 62.707943	 73.016954	 53.179869	 65.244803	 51.180718	 84.149158	 63.366084	 76.675692	 57.343987	 66.621659	 52.659179	 
224.000000	 83.215672	 62.889427	 73.014247	 53.355296	 65.244575	 51.305177	 84.147283	 63.549989	 76.672686	 57.512958	 66.621480	 52.782739	 
226.000000	 83.214049	 63.067713	 73.011681	 53.527621	 65.244347	 51.427450	 84.145494	 63.730651	 76.669857	 57.678937	 66.621299	 52.904130	 
228.000000	 83.212498	 63.242885	 73.009251	 53.696925	 65.244120	 51.547595	 84.143792	 63.908156	 76.667196	 57.842005	 66.621116	 53.023408	 
230.000000	 83.211020	 63.415025	 73.006954	 53.863289	 65.243894	 51.665667	 84.142174	 64.082588	 76.664697	 58.002238	 66.620934	 53.140628	 
232.000000	 83.209614	 63.584209	 73.004787	 54.026788	 65.243671	 51.781718	 84.140639	 64.254024	 76.662352	 58.159711	 66.620752	 53.255843	 
234.000000	 83.208279	 63.750515	 73.002745	 54.187498	 65.243452	 51.895801	 84.139186	 64.422542	 76.660154	 58.314495	 66.620571	 53.369103	 
236.000000	 83.207014	 63.914015	 73.000824	 54.345489	 65.243236	 52.007964	 84.137812	 64.588217	 76.658097	 58.466659	 66.620393	 53.480459	 
238.000000	 83.205817	 64.074780	 72.999019	 54.500830	 65.243024	 52.118256	 84.136516	 64.751119	 76.656173	 58.616270	 66.620217	 53.589957	 
240.000000	 83.204687	 64.232878	 72.997326	 54.653589	 65.242818	 52.226723	 84.135294	 64.911319	 76.654376	 58.763393	 66.620043	 53.697643	 
242.000000	 83.203621	 64.388376	 72.995741	 54.803829	 65.242617	 52.333411	 84.134144	 65.068883	 76.652699	 58.908089	 66.619873	 53.803563	 
244.000000	 83.202618	 64.541337	 72.994257	 54.951613	 65.242422	 52.438362	 84.133063	 65.223877	 76.651136	 59.050419	 66.619707	 53.907760	 
246.000000	 83.201675	 64.691824	 72.992871	 55.097002	 65.242233	 52.541619	 84.132048	 65.376362	 76.649679	 59.190441	 66.619546	 54.010274	 
248.000000	 83.200789	 64.839896	 72.991577	 55.240053	 65.242051	 52.643223	 84.131096	 65.526400	 76.648325	 59.328211	 66.619388	 54.111147	 
250.000000	 83.199958	 64.985610	 72.990370	 55.380823	 65.241875	 52.743212	 84.130205	 65.674049	 76.647065	 59.463784	 66.619236	 54.210418	 
252.000000	 83.199180	 65.129024	 72.989247	 55.519367	 65.241705	 52.841626	 84.129371	 65.819366	 76.645895	 59.597212	 66.619088	 54.308124	 
254.000000	 83.198452	 65.270192	 72.988201	 55.655738	 65.241542	 52.938500	 84.128592	 65.962407	 76.644810	 59.728546	 66.618945	 54.404302	 
256.000000	 83.197771	 65.409165	 72.987229	 55.789986	 65.241386	 53.033871	 84.127864	 66.103225	 76.643803	 59.857836	 66.618808	 54.498988	 
258.000000	 83.197135	 65.545996	 72.986327	 55.922161	 65.241237	 53.127774	 84.127185	 66.241871	 76.642870	 59.985130	 66.618676	 54.592216	 
260.000000	 83.196542	 65.680733	 72.985490	 56.052312	 65.241094	 53.220242	 84.126553	 66.378395	 76.642007	 60.110473	 66.618549	 54.684020	 
262.000000	 83.195989	 65.813424	 72.984714	 56.180484	 65.240958	 53.311308	 84.125963	 66.512846	 76.641209	 60.233911	 66.618428	 54.774433	 
264.000000	 83.195474	 65.944116	 72.983995	 56.306723	 65.240829	 53.401004	 84.125415	 66.645271	 76.640470	 60.355487	 66.618312	 54.863484	 
266.000000	 83.194994	 66.072854	 72.983329	 56.431073	 65.240706	 53.489360	 84.124905	 66.775717	 76.639788	 60.475243	 66.618201	 54.951206	 
268.000000	 83.194548	 66.199681	 72.982713	 56.553575	 65.240589	 53.576406	 84.124431	 66.904226	 76.639159	 60.593220	 66.618096	 55.037627	 
270.000000	 83.194133	 66.324641	 72.982144	 56.674272	 65.240479	 53.662171	 84.123991	 67.030841	 76.638578	 60.709457	 66.617996	 55.122777	 
272.000000	 83.193748	 66.447773	 72.981618	 56.793203	 65.240374	 53.746683	 84.123583	 67.155606	 76.638043	 60.823994	 66.617901	 55.206683	 
274.000000	 83.193391	 66.569118	 72.981132	 56.910406	 65.240275	 53.829970	 84.123204	 67.278560	 76.637549	 60.936867	 66.617811	 55.289373	 
276.000000	 83.193059	 66.688715	 72.980684	 57.025919	 65.240182	 53.912058	 84.122853	 67.399742	 76.637095	 61.048112	 66.617726	 55.370872	 
278.000000	 83.192751	 66.806601	 72.980270	 57.139779	 65.240094	 53.992973	 84.122528	 67.519190	 76.636676	 61.157765	 66.617646	 55.451206	 
280.000000	 83.192466	 66.922812	 72.979889	 57.252022	 65.240012	 54.072739	 84.122226	 67.636942	 76.636291	 61.265860	 66.617570	 55.530400	 
282.000000	 83.192201	 67.037386	 72.979537	 57.362680	 65.239934	 54.151381	 84.121947	 67.753034	 76.635937	 61.372431	 66.617498	 55.608478	 
284.000000	 83.191956	 67.150355	 72.979213	 57.471789	 65.239861	 54.228923	 84.121689	 67.867500	 76.635612	 61.477508	 66.617431	 55.685464	 
286.000000	 83.191730	 67.261753	 72.978915	 57.579380	 65.239792	 54.305387	 84.121451	 67.980374	 76.635313	 61.581123	 66.617368	 55.761380	 
288.000000	 83.191520	 67.371613	 72.978641	 57.685486	 65.239728	 54.380797	 84.121230	 68.091691	 76.635039	 61.683308	 66.617308	 55.836248	 
290.000000	 83.191326	 67.479968	 72.978388	 57.790135	 65.239668	 54.455173	 84.121026	 68.201481	 76.634786	 61.784091	 66.617252	 55.910091	 
292.000000	 83.191146	 67.586846	 72.978156	 57.893360	 65.239612	 54.528536	 84.120838	 68.309776	 76.634555	 61.883501	 66.617200	 55.982928	 
294.000000	 83.190980	 67.692280	 72.977942	 57.995188	 65.239559	 54.600908	 84.120663	 68.416606	 76.634343	 61.981947	 66.617151	 56.054781	 
296.000000	 83.190827	 67.796297	 72.977745	 58.095648	 65.239510	 54.672308	 84.120503	 68.522001	 76.634149	 62.080284	 66.617105	 56.125669	 
298.000000	 83.190685	 67.898926	 72.977565	 58.194767	 65.239464	 54.742756	 84.120355	 68.625990	 76.633970	 62.177309	 66.617062	 56.195612	 
300.000000	 83.190554	 68.000195	 72.977399	 58.292572	 65.239421	 54.812270	 84.120218	 68.728601	 76.633807	 62.273047	 66.617022	 56.264628	 
302.000000	 83.190434	 68.100131	 72.977246	 58.389089	 65.239381	 54.880869	 84.120091	 68.829861	 76.633657	 62.367525	 66.616985	 56.332735	 
304.000000	 83.190322	 68.198760	 72.977106	 58.484344	 65.239343	 54.948572	 84.119975	 68.929796	 76.633520	 62.460767	 66.616950	 56.399952	 
306.000000	 83.190219	 68.296107	 72.976978	 58.578360	 65.239309	 55.015395	 84.119868	 69.028433	 76.633395	 62.552797	 66.616917	 56.466296	 
308.000000	 83.190124	 68.392197	 72.976860	 58.671163	 65.239276	 55.081355	 84.119769	 69.125796	 76.633280	 62.643639	 66.616887	 56.531784	 
310.000000	 83.190036	 68.487055	 72.976751	 58.762775	 65.239246	 55.146470	 84.119678	 69.221911	 76.633175	 62.733315	 66.616858	 56.596432	 
312.000000	 83.189955	 68.580704	 72.976652	 58.853220	 65.239218	 55.210755	 84.119594	 69.316801	 76.633079	 62.821849	 66.616832	 56.660256	 
314.000000	 83.189881	 68.673167	 72.976560	 58.942519	 65.239192	 55.274226	 84.119516	 69.410489	 76.632991	 62.909261	 66.616807	 56.723272	 
316.000000	 83.189812	 68.764467	 72.976477	 59.030694	 65.239168	 55.336899	 84.119445	 69.502998	 76.632910	 62.995573	 66.616784	 56.785495	 
318.000000	 83.189748	 68.854625	 72.976400	 59.117767	 65.239145	 55.398788	 84.119379	 69.594350	 76.632837	 63.080806	 66.616763	 56.846941	 
320.000000	 83.189690	 68.943663	 72.976329	 59.203757	 65.239124	 55.459908	 84.119319	 69.684568	 76.632769	 63.164980	 66.616743	 56.907623	 
322.000000	 83.189636	 69.031601	 72.976264	 59.288686	 65.239105	 55.520273	 84.119263	 69.773671	 76.632708	 63.248114	 66.616725	 56.967556	 
324.000000	 83.189586	 69.118460	 72.976205	 59.372572	 65.239087	 55.579898	 84.119212	 69.861680	 76.632651	 63.330228	 66.616708	 57.026753	 
326.000000	 83.189540	 69.204259	 72.976150	 59.455435	 65.239070	 55.638795	 84.119164	 69.948616	 76.632600	 63.411340	 66.616692	 57.085228	 
328.000000	 83.189497	 69.289018	 72.976100	 59.537293	 65.239054	 55.696979	 84.119120	 70.034498	 76.632553	 63.491468	 66.616677	 57.142994	 
330.000000	 83.189458	 69.372755	 72.976054	 59.618164	 65.239040	 55.754461	 84.119080	 70.119345	 76.632510	 63.570631	 66.616663	 57.200065	 
332.000000	 83.189422	 69.455490	 72.976012	 59.698067	 65.239026	 55.811255	 84.119043	 70.203175	 76.632470	 63.648846	 66.616651	 57.256451	 
334.000000	 83.189388	 69.537239	 72.975973	 59.777018	 65.239014	 55.867372	 84.119009	 70.286008	 76.632434	 63.726129	 66.616639	 57.312167	 
336.000000	 83.189357	 69.618021	 72.975937	 59.855035	 65.239002	 55.922826	 84.118977	 70.367859	 76.632401	 63.802498	 66.616628	 57.367223	 
338.000000	 83.189328	 69.697852	 72.975904	 59.932134	 65.238991	 55.977627	 84.118948	 70.448748	 76.632371	 63.877967	 66.616617	 57.421631	 
340.000000	 83.189302	 69.776750	 72.975873	 60.008331	 65.238981	 56.031787	 84.118921	 70.528691	 76.632343	 63.952554	 66.616608	 57.475403	 
342.000000	 83.189277	 69.854730	 72.975845	 60.083641	 65.238971	 56.085317	 84.118895	 70.607704	 76.632317	 64.026274	 66.616599	 57.528549	 
344.000000	 83.189254	 69.931808	 72.975819	 60.158081	 65.238962	 56.138228	 84.118872	 70.685803	 76.632294	 64.099141	 66.616590	 57.581081	 
346.000000	 83.189233	 70.008000	 72.975795	 60.231665	 65.238954	 56.190531	 84.118850	 70.763004	 76.632272	 64.171171	 66.616582	 57.633010	 
348.000000	 83.189213	 70.083321	 72.975773	 60.304408	 65.238946	 56.242236	 84.118830	 70.839323	 76.632252	 64.242377	 66.616575	 57.684344	 
350.000000	 83.189194	 70.157786	 72.975752	 60.376324	 65.238939	 56.293354	 84.118811	 70.914775	 76.632233	 64.312774	 66.616568	 57.735095	 
352.000000	 83.189177	 70.231410	 72.975732	 60.447428	 65.238932	 56.343894	 84.118794	 70.989374	 76.632216	 64.382375	 66.616562	 57.785273	 
354.000000	 83.189160	 70.304206	 72.975714	 60.517732	 65.238926	 56.393866	 84.118777	 71.063135	 76.632200	 64.451194	 66.616556	 57.834887	 
356.000000	 83.189145	 70.376189	 72.975697	 60.587251	 65.238920	 56.443280	 84.118762	 71.136071	 76.632185	 64.519244	 66.616550	 57.883947	 
358.000000	 83.189130	 70.447372	 72.975681	 60.655997	 65.238914	 56.492144	 84.118747	 71.208197	 76.632171	 64.586539	 66.616545	 57.932461	 
360.000000	 83.189117	 70.517769	 72.975666	 60.723984	 65.238909	 56.540469	 84.118733	 71.279526	 76.632157	 64.653089	 66.616540	 57.980440	 
362.000000	 83.189104	 70.587391	 72.975651	 60.791223	 65.238904	 56.588263	 84.118720	 71.350071	 76.632145	 64.718908	 66.616535	 58.027891	 
364.000000	 83.189091	 70.656253	 72.975637	 60.857728	 65.238899	 56.635534	 84.118707	 71.419845	 76.632133	 64.784007	 66.616530	 58.074823	 
366.000000	 83.189079	 70.724366	 72.975624	 60.923510	 65.238894	 56.682291	 84.118695	 71.488860	 76.632121	 64.848399	 66.616526	 58.121245	 
368.000000	 83.189067	 70.791743	 72.975612	 60.988580	 65.238890	 56.728543	 84.118684	 71.557130	 76.632111	 64.912095	 66.616522	 58.167166	 
370.000000	 83.189056	 70.858395	 72.975599	 61.052951	 65.238886	 56.774298	 84.118672	 71.624665	 76.632100	 64.975106	 66.616518	 58.212592	 
372.000000	 83.189045	 70.924334	 72.975587	 61.116633	 65.238882	 56.819563	 84.118662	 71.691478	 76.632090	 65.037443	 66.616514	 58.257533	 
374.000000	 83.189035	 70.989572	 72.975576	 61.179637	 65.238878	 56.864346	 84.118651	 71.757580	 76.632080	 65.099116	 66.616511	 58.301996	 
376.000000	 83.189025	 71.054120	 72.975564	 61.241975	 65.238874	 56.908656	 84.118641	 71.822982	 76.632070	 65.160137	 66.616507	 58.345988	 
378.000000	 83.189014	 71.117987	 72.975553	 61.303657	 65.238870	 56.952499	 84.118631	 71.887696	 76.632061	 65.220516	 66.616504	 58.389517	 
380.000000	 83.189004	 71.181187	 72.975542	 61.364692	 65.238867	 56.995883	 84.118621	 71.951732	 76.632051	 65.280262	 66.616500	 58.432590	 
382.000000	 83.188995	 71.243727	 72.975531	 61.425092	 65.238863	 57.038816	 84.118611	 72.015101	 76.632042	 65.339386	 66.616497	 58.475215	 
384.000000	 83.188985	 71.305620	 72.975520	 61.484866	 65.238860	 57.081303	 84.118601	 72.077814	 76.632033	 65.397897	 66.616494	 58.517397	 
386.000000	 83.188975	 71.366874	 72.975509	 61.544023	 65.238856	 57.123352	 84.118591	 72.139880	 76.632023	 65.455805	 66.616491	 58.559145	 
388.000000	 83.188965	 71.427500	 72.975498	 61.602574	 65.238853	 57.164970	 84.118581	 72.201309	 76.632014	 65.513119	 66.616488	 58.600465	 
390.000000	 83.188955	 71.487508	 72.975487	 61.660527	 65.238849	 57.206163	 84.118571	 72.262111	 76.632004	 65.569848	 66.616484	 58.641363	 
392.000000	 83.188945	 71.546906	 72.975475	 61.717892	 65.238846	 57.246938	 84.118561	 72.322296	 76.631995	 65.626001	 66.616481	 58.681846	 
394.000000	 83.188935	 71.605704	 72.975464	 61.774677	 65.238843	 57.287302	 84.118551	 72.381873	 76.631985	 65.681587	 66.616478	 58.721920	 
396.000000	 83.188924	 71.663911	 72.975452	 61.830892	 65.238839	 57.327259	 84.118541	 72.440852	 76.631975	 65.736614	 66.616475	 58.761591	 
398.000000	 83.188914	 71.721536	 72.975440	 61.886544	 65.238836	 57.366817	 84.118530	 72.499240	 76.631964	 65.791090	 66.616472	 58.800865	 
400.000000	 83.188903	 71.778588	 72.975428	 61.941643	 65.238832	 57.405981	 84.118520	 72.557047	 76.631954	 65.845025	 66.616469	 58.839749	 
402.000000	 83.188892	 71.835074	 72.975415	 61.996196	 65.238829	 57.444758	 84.118509	 72.614282	 76.631943	 65.898426	 66.616466	 58.878248	 
404.000000	 83.188881	 71.891004	 72.975402	 62.050211	 65.238825	 57.483152	 84.118498	 72.670953	 76.631932	 65.951300	 66.616463	 58.916367	 
406.000000	 83.188870	 71.946386	 72.975389	 62.103697	 65.238822	 57.521170	 84.118486	 72.727069	 76.631921	 66.003656	 66.616460	 58.954112	 
408.000000	 83.188858	 72.001227	 72.975375	 62.156661	 65.238818	 57.558817	 84.118475	 72.782637	 76.631909	 66.055501	 66.616456	 58.991490	 
410.000000	 83.188846	 72.055536	 72.975361	 62.209110	 65.238814	 57.596099	 84.118463	 72.837665	 76.631897	 66.106843	 66.616453	 59.028504	 
412.000000	 83.188834	 72.109320	 72.975347	 62.261053	 65.238810	 57.633020	 84.118450	 72.892161	 76.631885	 66.157689	 66.616450	 59.065161	 
414.000000	 83.188821	 72.162587	 72.975332	 62.312496	 65.238806	 57.669586	 84.118437	 72.946134	 76.631872	 66.208045	 66.616446	 59.101465	 
416.000000	 83.188808	 72.215344	 72.975317	 62.363447	 65.238802	 57.705803	 84.118424	 72.999590	 76.631859	 66.257920	 66.616443	 59.137422	 
418.000000	 83.188794	 72.267599	 72.975301	 62.413913	 65.238798	 57.741674	 84.118411	 73.052537	 76.631845	 66.307320	 66.616439	 59.173036	 
420.000000	 83.188780	 72.319358	 72.975284	 62.463900	 65.238794	 57.777205	 84.118397	 73.104981	 76.631831	 66.356251	 66.616435	 59.208313	 
422.000000	 83.188766	 72.370629	 72.975267	 62.513416	 65.238790	 57.812402	 84.118382	 73.156931	 76.631817	 66.404721	 66.616431	 59.243257	 
424.000000	 83.188751	 72.421418	 72.975250	 62.562466	 65.238785	 57.847267	 84.118368	 73.208394	 76.631802	 66.452735	 66.616427	 59.277873	 
426.000000	 83.188736	 72.471733	 72.975232	 62.611058	 65.238781	 57.881807	 84.118352	 73.259375	 76.631786	 66.500301	 66.616423	 59.312165	 
428.000000	 83.188720	 72.521579	 72.975213	 62.659198	 65.238776	 57.916025	 84.118336	 73.309881	 76.631770	 66.547424	 66.616419	 59.346138	 
430.000000	 83.188704	 72.570964	 72.975194	 62.706892	 65.238771	 57.949927	 84.118320	 73.359921	 76.631753	 66.594110	 66.616415	 59.379797	 
432.000000	 83.188687	 72.619893	 72.975174	 62.754146	 65.238766	 57.983516	 84.118303	 73.409498	 76.631736	 66.640367	 66.616410	 59.413146	 
434.000000	 83.188669	 72.668374	 72.975153	 62.800967	 65.238761	 58.016797	 84.118285	 73.458621	 76.631718	 66.686199	 66.616406	 59.446188	 
436.000000	 83.188651	 72.716412	 72.975131	 62.847360	 65.238755	 58.049774	 84.118267	 73.507295	 76.631699	 66.731612	 66.616401	 59.478929	 
438.000000	 83.188632	 72.764013	 72.975109	 62.893331	 65.238750	 58.082451	 84.118249	 73.555527	 76.631680	 66.776612	 66.616396	 59.511372	 
440.000000	 83.188613	 72.811183	 72.975086	 62.938887	 65.238744	 58.114833	 84.118229	 73.603322	 76.631660	 66.821205	 66.616391	 59.543521	 
442.000000	 83.188593	 72.857928	 72.975062	 62.984031	 65.238738	 58.146922	 84.118209	 73.650686	 76.631639	 66.865396	 66.616386	 59.575381	 
444.000000	 83.188572	 72.904254	 72.975037	 63.028771	 65.238732	 58.178724	 84.118188	 73.697626	 76.631618	 66.909191	 66.616381	 59.606955	 
446.000000	 83.188551	 72.950166	 72.975012	 63.073111	 65.238726	 58.210242	 84.118167	 73.744146	 76.631596	 66.952595	 66.616375	 59.638247	 
448.000000	 83.188528	 72.995670	 72.974985	 63.117057	 65.238719	 58.241480	 84.118144	 73.790253	 76.631573	 66.995612	 66.616369	 59.669261	 
450.000000	 83.188505	 73.040771	 72.974958	 63.160613	 65.238712	 58.272441	 84.118121	 73.835951	 76.631549	 67.038249	 66.616363	 59.700000	 
452.000000	 83.188482	 73.085474	 72.974929	 63.203786	 65.238705	 58.303129	 84.118097	 73.881247	 76.631524	 67.080510	 66.616357	 59.730469	 
454.000000	 83.188457	 73.129786	 72.974900	 63.246580	 65.238698	 58.333548	 84.118073	 73.926146	 76.631499	 67.122401	 66.616351	 59.760670	 
456.000000	 83.188431	 73.173710	 72.974869	 63.289000	 65.238690	 58.363702	 84.118047	 73.970652	 76.631472	 67.163925	 66.616344	 59.790607	 
458.000000	 83.188405	 73.217252	 72.974837	 63.331051	 65.238683	 58.393593	 84.118020	 74.014771	 76.631445	 67.205088	 66.616337	 59.820285	 
460.000000	 83.188377	 73.260417	 72.974805	 63.372738	 65.238675	 58.423226	 84.117993	 74.058508	 76.631416	 67.245895	 66.616330	 59.849705	 
462.000000	 83.188349	 73.303210	 72.974771	 63.414066	 65.238666	 58.452602	 84.117964	 74.101867	 76.631387	 67.286349	 66.616323	 59.878871	 
464.000000	 83.188320	 73.345635	 72.974735	 63.455038	 65.238658	 58.481727	 84.117935	 74.144855	 76.631356	 67.326457	 66.616315	 59.907787	 
466.000000	 83.188289	 73.387698	 72.974699	 63.495660	 65.238649	 58.510603	 84.117904	 74.187475	 76.631324	 67.366221	 66.616307	 59.936456	 
468.000000	 83.188258	 73.429402	 72.974661	 63.535937	 65.238639	 58.539233	 84.117872	 74.229732	 76.631291	 67.405647	 66.616299	 59.964881	 
470.000000	 83.188225	 73.470753	 72.974622	 63.575872	 65.238630	 58.567620	 84.117840	 74.271630	 76.631257	 67.444739	 66.616291	 59.993065	 
472.000000	 83.188191	 73.511755	 72.974581	 63.615469	 65.238620	 58.595768	 84.117806	 74.313175	 76.631222	 67.483500	 66.616282	 60.021011	 
474.000000	 83.188156	 73.552412	 72.974539	 63.654734	 65.238610	 58.623679	 84.117770	 74.354371	 76.631186	 67.521936	 66.616273	 60.048722	 
476.000000	 83.188120	 73.592729	 72.974496	 63.693670	 65.238599	 58.651356	 84.117734	 74.395222	 76.631148	 67.560050	 66.616264	 60.076201	 
478.000000	 83.188082	 73.632710	 72.974451	 63.732281	 65.238588	 58.678803	 84.117696	 74.435732	 76.631109	 67.597846	 66.616254	 60.103452	 
480.000000	 83.188043	 73.672358	 72.974404	 63.770572	 65.238577	 58.706022	 84.117657	 74.475906	 76.631068	 67.635328	 66.616244	 60.130476	 
482.000000	 83.188003	 73.711679	 72.974356	 63.808546	 65.238565	 58.733016	 84.117617	 74.515748	 76.631026	 67.672500	 66.616234	 60.157276	 
484.000000	 83.187961	 73.750676	 72.974305	 63.846207	 65.238553	 58.759788	 84.117575	 74.555262	 76.630982	 67.709366	 66.616223	 60.183856	 
486.000000	 83.187918	 73.789353	 72.974254	 63.883559	 65.238540	 58.786340	 84.117531	 74.594451	 76.630937	 67.745930	 66.616212	 60.210218	 
488.000000	 83.187873	 73.827715	 72.974200	 63.920607	 65.238527	 58.812676	 84.117486	 74.633321	 76.630891	 67.782195	 66.616201	 60.236365	 
490.000000	 83.187827	 73.865764	 72.974144	 63.957352	 65.238513	 58.838797	 84.117440	 74.671874	 76.630842	 67.818166	 66.616189	 60.262300	 
492.000000	 83.187779	 73.903505	 72.974086	 63.993800	 65.238499	 58.864707	 84.117392	 74.710115	 76.630792	 67.853844	 66.616176	 60.288024	 
494.000000	 83.187729	 73.940941	 72.974027	 64.029954	 65.238485	 58.890407	 84.117342	 74.748048	 76.630740	 67.889235	 66.616164	 60.313540	 
496.000000	 83.187678	 73.978077	 72.973965	 64.065818	 65.238470	 58.915902	 84.117290	 74.785675	 76.630686	 67.924341	 66.616151	 60.338852	 
498.000000	 83.187624	 74.014915	 72.973901	 64.101394	 65.238454	 58.941192	 84.117236	 74.823001	 76.630631	 67.959166	 66.616137	 60.363961	 
500.000000	 83.187569	 74.051459	 72.973834	 64.136686	 65.238438	 58.966280	 84.117181	 74.860030	 76.630573	 67.993714	 66.616123	 60.388870	 
502.000000	 83.187512	 74.087714	 72.973766	 64.171698	 65.238422	 58.991170	 84.117124	 74.896764	 76.630513	 68.027987	 66.616108	 60.413582	 
504.000000	 83.187453	 74.123681	 72.973695	 64.206433	 65.238404	 59.015862	 84.117064	 74.933208	 76.630452	 68.061989	 66.616093	 60.438097	 
506.000000	 83.187392	 74.159365	 72.973621	 64.240894	 65.238386	 59.040361	 84.117003	 74.969365	 76.630388	 68.095722	 66.616078	 60.462420	 
508.000000	 83.187328	 74.194769	 72.973545	 64.275084	 65.238368	 59.064666	 84.116939	 75.005238	 76.630321	 68.129191	 66.616061	 60.486552	 
510.000000	 83.187262	 74.229896	 72.973466	 64.309008	 65.238349	 59.088782	 84.116873	 75.040830	 76.630253	 68.162399	 66.616045	 60.510495	 
512.000000	 83.187194	 74.264749	 72.973384	 64.342666	 65.238329	 59.112711	 84.116804	 75.076145	 76.630181	 68.195347	 66.616027	 60.534252	 
514.000000	 83.187124	 74.299332	 72.973299	 64.376064	 65.238308	 59.136453	 84.116734	 75.111186	 76.630108	 68.228040	 66.616009	 60.557825	 
516.000000	 83.187051	 74.333647	 72.973211	 64.409203	 65.238287	 59.160012	 84.116660	 75.145956	 76.630032	 68.260480	 66.615991	 60.581216	 
518.000000	 83.186975	 74.367699	 72.973120	 64.442087	 65.238265	 59.183390	 84.116584	 75.180459	 76.629953	 68.292671	 66.615971	 60.604426	 
520.000000	 83.186897	 74.401489	 72.973026	 64.474719	 65.238242	 59.206589	 84.116506	 75.214697	 76.629871	 68.324614	 66.615951	 60.627459	 
522.000000	 83.186816	 74.435020	 72.972929	 64.507101	 65.238219	 59.229610	 84.116424	 75.248673	 76.629786	 68.356313	 66.615931	 60.650316	 
524.000000	 83.186732	 74.468297	 72.972827	 64.539237	 65.238194	 59.252457	 84.116340	 75.282390	 76.629698	 68.387771	 66.615909	 60.672999	 
526.000000	 83.186645	 74.501321	 72.972723	 64.571129	 65.238169	 59.275130	 84.116253	 75.315852	 76.629607	 68.418990	 66.615887	 60.695509	 
528.000000	 83.186555	 74.534095	 72.972615	 64.602779	 65.238142	 59.297632	 84.116163	 75.349060	 76.629513	 68.449973	 66.615864	 60.717850	 
530.000000	 83.186462	 74.566623	 72.972502	 64.634192	 65.238115	 59.319965	 84.116069	 75.382019	 76.629416	 68.480723	 66.615840	 60.740023	 
532.000000	 83.186366	 74.598907	 72.972386	 64.665368	 65.238087	 59.342130	 84.115972	 75.414730	 76.629315	 68.511242	 66.615816	 60.762030	 
534.000000	 83.186266	 74.630949	 72.972266	 64.696312	 65.238058	 59.364130	 84.115872	 75.447197	 76.629210	 68.541533	 66.615790	 60.783872	 
536.000000	 83.186162	 74.662753	 72.972141	 64.727024	 65.238028	 59.385966	 84.115768	 75.479423	 76.629102	 68.571598	 66.615764	 60.805552	 
538.000000	 83.186055	 74.694321	 72.972012	 64.757509	 65.237997	 59.407640	 84.115660	 75.511409	 76.628990	 68.601440	 66.615736	 60.827072	 
540.000000	 83.185944	 74.725655	 72.971879	 64.787769	 65.237964	 59.429154	 84.115549	 75.543158	 76.628874	 68.631062	 66.615708	 60.848432	 
542.000000	 83.185830	 74.756759	 72.971740	 64.817805	 65.237931	 59.450510	 84.115433	 75.574674	 76.628754	 68.660465	 66.615679	 60.869635	 
544.000000	 83.185711	 74.787634	 72.971597	 64.847621	 65.237896	 59.471709	 84.115314	 75.605958	 76.628629	 68.689652	 66.615648	 60.890683	 
546.000000	 83.185588	 74.818283	 72.971448	 64.877219	 65.237860	 59.492753	 84.115190	 75.637014	 76.628501	 68.718626	 66.615617	 60.911577	 
548.000000	 83.185460	 74.848710	 72.971295	 64.906601	 65.237823	 59.513644	 84.115062	 75.667843	 76.628367	 68.747389	 66.615585	 60.932318	 
550.000000	 83.185328	 74.878915	 72.971136	 64.935769	 65.237785	 59.534384	 84.114930	 75.698449	 76.628229	 68.775943	 66.615551	 60.952910	 
552.000000	 83.185192	 74.908901	 72.970971	 64.964727	 65.237745	 59.554974	 84.114792	 75.728832	 76.628086	 68.804290	 66.615516	 60.973352	 
554.000000	 83.185050	 74.938672	 72.970800	 64.993475	 65.237703	 59.575415	 84.114650	 75.758997	 76.627938	 68.832432	 66.615480	 60.993648	 
556.000000	 83.184904	 74.968228	 72.970624	 65.022016	 65.237661	 59.595710	 84.114503	 75.788945	 76.627784	 68.860373	 66.615443	 61.013798	 
558.000000	 83.184752	 74.997573	 72.970441	 65.050353	 65.237616	 59.615860	 84.114351	 75.818679	 76.627625	 68.888113	 66.615404	 61.033803	 
560.000000	 83.184595	 75.026708	 72.970251	 65.078488	 65.237571	 59.635866	 84.114193	 75.848200	 76.627461	 68.915655	 66.615364	 61.053667	 
562.000000	 83.184433	 75.055636	 72.970055	 65.106423	 65.237523	 59.655730	 84.114030	 75.877512	 76.627291	 68.943001	 66.615322	 61.073389	 
564.000000	 83.184265	 75.084359	 72.969852	 65.134159	 65.237474	 59.675453	 84.113861	 75.906615	 76.627114	 68.970154	 66.615279	 61.092971	 
566.000000	 83.184090	 75.112879	 72.969641	 65.161699	 65.237423	 59.695038	 84.113685	 75.935514	 76.626931	 68.997114	 66.615235	 61.112416	 
568.000000	 83.183910	 75.141199	 72.969423	 65.189046	 65.237370	 59.714485	 84.113504	 75.964208	 76.626742	 69.023885	 66.615189	 61.131724	 
570.000000	 83.183723	 75.169319	 72.969198	 65.216200	 65.237316	 59.733795	 84.113316	 75.992702	 76.626547	 69.050468	 66.615141	 61.150897	 
572.000000	 83.183530	 75.197243	 72.968964	 65.243164	 65.237259	 59.752971	 84.113122	 76.020996	 76.626344	 69.076864	 66.615092	 61.169936	 
574.000000	 83.183330	 75.224973	 72.968722	 65.269940	 65.237201	 59.772013	 84.112921	 76.049093	 76.626134	 69.103077	 66.615041	 61.188842	 
576.000000	 83.183122	 75.252510	 72.968472	 65.296530	 65.237140	 59.790924	 84.112712	 76.076995	 76.625916	 69.129108	 66.614988	 61.207618	 
578.000000	 83.182908	 75.279856	 72.968212	 65.322936	 65.237077	 59.809704	 84.112497	 76.104703	 76.625691	 69.154958	 66.614933	 61.226264	 
580.000000	 83.182686	 75.307013	 72.967943	 65.349159	 65.237012	 59.828354	 84.112273	 76.132221	 76.625458	 69.180630	 66.614876	 61.244781	 
582.000000	 83.182455	 75.333984	 72.967665	 65.375202	 65.236945	 59.846877	 84.112042	 76.159549	 76.625217	 69.206125	 66.614818	 61.263172	 
584.000000	 83.182217	 75.360770	 72.967377	 65.401066	 65.236875	 59.865273	 84.111802	 76.186690	 76.624967	 69.231445	 66.614757	 61.281437	 
586.000000	 83.181970	 75.387373	 72.967079	 65.426753	 65.236803	 59.883543	 84.111554	 76.213645	 76.624708	 69.256592	 66.614694	 61.299577	 
588.000000	 83.181715	 75.413794	 72.966770	 65.452265	 65.236729	 59.901690	 84.111298	 76.240417	 76.624440	 69.281568	 66.614629	 61.317594	 
590.000000	 83.181451	 75.440036	 72.966450	 65.477603	 65.236651	 59.919713	 84.111032	 76.267007	 76.624162	 69.306374	 66.614561	 61.335489	 
592.000000	 83.181177	 75.466101	 72.966118	 65.502770	 65.236571	 59.937615	 84.110756	 76.293416	 76.623875	 69.331012	 66.614491	 61.353264	 
594.000000	 83.180893	 75.491989	 72.965775	 65.527766	 65.236488	 59.955396	 84.110471	 76.319648	 76.623577	 69.355484	 66.614419	 61.370919	 
596.000000	 83.180599	 75.517704	 72.965420	 65.552595	 65.236402	 59.973059	 84.110176	 76.345703	 76.623269	 69.379791	 66.614344	 61.388455	 
598.000000	 83.180295	 75.543246	 72.965052	 65.577256	 65.236313	 59.990603	 84.109871	 76.371584	 76.622950	 69.403935	 66.614267	 61.405875	 
600.000000	 83.179981	 75.568617	 72.964671	 65.601752	 65.236221	 60.008030	 84.109554	 76.397292	 76.622620	 69.427917	 66.614186	 61.423178	 
602.000000	 83.179655	 75.593819	 72.964276	 65.626085	 65.236126	 60.025342	 84.109227	 76.422828	 76.622278	 69.451739	 66.614103	 61.440366	 
604.000000	 83.179317	 75.618853	 72.963867	 65.650256	 65.236027	 60.042539	 84.108887	 76.448194	 76.621923	 69.475403	 66.614017	 61.457441	 
606.000000	 83.178967	 75.643722	 72.963444	 65.674267	 65.235924	 60.059622	 84.108536	 76.473393	 76.621557	 69.498911	 66.613928	 61.474403	 
608.000000	 83.178605	 75.668427	 72.963006	 65.698118	 65.235818	 60.076593	 84.108172	 76.498425	 76.621177	 69.522262	 66.613836	 61.491254	 
610.000000	 83.178231	 75.692969	 72.962552	 65.721813	 65.235709	 60.093453	 84.107796	 76.523292	 76.620783	 69.545460	 66.613740	 61.507994	 
612.000000	 83.177843	 75.717349	 72.962081	 65.745351	 65.235595	 60.110203	 84.107406	 76.547996	 76.620376	 69.568505	 66.613641	 61.524625	 
614.000000	 83.177441	 75.741570	 72.961595	 65.768735	 65.235477	 60.126843	 84.107002	 76.572538	 76.619954	 69.591400	 66.613539	 61.541147	 
616.000000	 83.177025	 75.765633	 72.961090	 65.791966	 65.235355	 60.143376	 84.106584	 76.596920	 76.619518	 69.614144	 66.613433	 61.557562	 
618.000000	 83.176594	 75.789539	 72.960568	 65.815045	 65.235229	 60.159801	 84.106151	 76.621144	 76.619065	 69.636741	 66.613323	 61.573871	 
620.000000	 83.176148	 75.813291	 72.960027	 65.837974	 65.235098	 60.176120	 84.105703	 76.645210	 76.618597	 69.659191	 66.613209	 61.590075	 
622.000000	 83.175686	 75.836888	 72.959467	 65.860755	 65.234963	 60.192335	 84.105238	 76.669120	 76.618112	 69.681495	 66.613092	 61.606174	 
624.000000	 83.175207	 75.860333	 72.958887	 65.883388	 65.234822	 60.208445	 84.104758	 76.692876	 76.617610	 69.703655	 66.612970	 61.622171	 
626.000000	 83.174712	 75.883627	 72.958286	 65.905875	 65.234677	 60.224452	 84.104260	 76.716479	 76.617090	 69.725672	 66.612843	 61.638064	 
628.000000	 83.174199	 75.906772	 72.957664	 65.928217	 65.234526	 60.240357	 84.103745	 76.739931	 76.616551	 69.747548	 66.612713	 61.653857	 
630.000000	 83.173667	 75.929768	 72.957019	 65.950416	 65.234371	 60.256161	 84.103211	 76.763232	 76.615994	 69.769284	 66.612577	 61.669549	 
632.000000	 83.173117	 75.952618	 72.956352	 65.972473	 65.234209	 60.271864	 84.102659	 76.786385	 76.615416	 69.790880	 66.612437	 61.685142	 
634.000000	 83.172547	 75.975322	 72.955660	 65.994389	 65.234042	 60.287469	 84.102086	 76.809391	 76.614818	 69.812339	 66.612292	 61.700636	 
636.000000	 83.171957	 75.997882	 72.954944	 66.016165	 65.233869	 60.302975	 84.101494	 76.832250	 76.614199	 69.833662	 66.612142	 61.716033	 
638.000000	 83.171346	 76.020299	 72.954202	 66.037803	 65.233689	 60.318383	 84.100880	 76.854964	 76.613558	 69.854849	 66.611987	 61.731332	 
640.000000	 83.170714	 76.042575	 72.953434	 66.059303	 65.233503	 60.333695	 84.100245	 76.877535	 76.612894	 69.875902	 66.611826	 61.746536	 
642.000000	 83.170058	 76.064710	 72.952638	 66.080668	 65.233311	 60.348911	 84.099587	 76.899964	 76.612206	 69.896822	 66.611659	 61.761646	 
644.000000	 83.169380	 76.086706	 72.951814	 66.101898	 65.233111	 60.364033	 84.098906	 76.922252	 76.611494	 69.917611	 66.611486	 61.776661	 
646.000000	 83.168677	 76.108564	 72.950961	 66.122994	 65.232905	 60.379060	 84.098200	 76.944400	 76.610757	 69.938268	 66.611308	 61.791582	 
648.000000	 83.167949	 76.130285	 72.950077	 66.143957	 65.232691	 60.393994	 84.097470	 76.966409	 76.609993	 69.958797	 66.611122	 61.806412	 
650.000000	 83.167195	 76.151870	 72.949161	 66.164790	 65.232469	 60.408836	 84.096713	 76.988281	 76.609203	 69.979197	 66.610931	 61.821149	 
652.000000	 83.166415	 76.173322	 72.948212	 66.185491	 65.232239	 60.423587	 84.095930	 77.010017	 76.608384	 69.999470	 66.610732	 61.835796	 
654.000000	 83.165606	 76.194640	 72.947229	 66.206064	 65.232001	 60.438246	 84.095119	 77.031618	 76.607536	 70.019616	 66.610527	 61.850354	 
656.000000	 83.164769	 76.215825	 72.946211	 66.226509	 65.231755	 60.452816	 84.094279	 77.053085	 76.606658	 70.039638	 66.610314	 61.864822	 
658.000000	 83.163902	 76.236880	 72.945157	 66.246826	 65.231500	 60.467297	 84.093409	 77.074419	 76.605748	 70.059535	 66.610094	 61.879201	 
660.000000	 83.163004	 76.257805	 72.944065	 66.267017	 65.231235	 60.481690	 84.092508	 77.095622	 76.604806	 70.079309	 66.609866	 61.893493	 
662.000000	 83.162074	 76.278601	 72.942933	 66.287084	 65.230961	 60.495995	 84.091575	 77.116694	 76.603831	 70.098961	 66.609629	 61.907698	 
664.000000	 83.161111	 76.299269	 72.941761	 66.307026	 65.230677	 60.510213	 84.090609	 77.137637	 76.602821	 70.118492	 66.609385	 61.921818	 
666.000000	 83.160113	 76.319811	 72.940547	 66.326846	 65.230383	 60.524345	 84.089608	 77.158451	 76.601775	 70.137903	 66.609132	 61.935851	 
668.000000	 83.159080	 76.340226	 72.939289	 66.346543	 65.230078	 60.538392	 84.088572	 77.179138	 76.600692	 70.157195	 66.608869	 61.949801	 
670.000000	 83.158010	 76.360517	 72.937986	 66.366119	 65.229762	 60.552355	 84.087499	 77.199699	 76.599570	 70.176369	 66.608598	 61.963666	 
672.000000	 83.156901	 76.380685	 72.936636	 66.385575	 65.229435	 60.566233	 84.086388	 77.220134	 76.598408	 70.195426	 66.608317	 61.977449	 
674.000000	 83.155753	 76.400729	 72.935238	 66.404912	 65.229096	 60.580029	 84.085237	 77.240445	 76.597205	 70.214366	 66.608025	 61.991149	 
676.000000	 83.154564	 76.420652	 72.933789	 66.424130	 65.228745	 60.593742	 84.084045	 77.260633	 76.595959	 70.233190	 66.607724	 62.004767	 
678.000000	 83.153332	 76.440454	 72.932287	 66.443231	 65.228380	 60.607373	 84.082811	 77.280698	 76.594669	 70.251901	 66.607412	 62.018304	 
680.000000	 83.152056	 76.460136	 72.930732	 66.462216	 65.228003	 60.620923	 84.081533	 77.300642	 76.593332	 70.270497	 66.607088	 62.031761	 
682.000000	 83.150734	 76.479699	 72.929121	 66.481084	 65.227612	 60.634393	 84.080209	 77.320465	 76.591948	 70.288981	 66.606754	 62.045138	 
684.000000	 83.149365	 76.499144	 72.927451	 66.499838	 65.227207	 60.647783	 84.078838	 77.340169	 76.590514	 70.307353	 66.606407	 62.058436	 
686.000000	 83.147947	 76.518472	 72.925721	 66.518478	 65.226787	 60.661094	 84.077418	 77.359754	 76.589030	 70.325614	 66.606048	 62.071656	 
688.000000	 83.146478	 76.537684	 72.923929	 66.537005	 65.226352	 60.674327	 84.075947	 77.379221	 76.587492	 70.343764	 66.605676	 62.084798	 
690.000000	 83.144956	 76.556780	 72.922072	 66.555419	 65.225901	 60.687482	 84.074424	 77.398571	 76.585900	 70.361805	 66.605291	 62.097863	 
692.000000	 83.143380	 76.575762	 72.920147	 66.573721	 65.225433	 60.700560	 84.072846	 77.417805	 76.584250	 70.379737	 66.604892	 62.110852	 
694.000000	 83.141746	 76.594629	 72.918153	 66.591913	 65.224949	 60.713561	 84.071212	 77.436924	 76.582542	 70.397561	 66.604480	 62.123764	 
696.000000	 83.140055	 76.613384	 72.916086	 66.609995	 65.224446	 60.726486	 84.069520	 77.455929	 76.580773	 70.415278	 66.604052	 62.136602	 
698.000000	 83.138302	 76.632027	 72.913945	 66.627967	 65.223926	 60.739336	 84.067767	 77.474820	 76.578940	 70.432888	 66.603609	 62.149365	 
700.000000	 83.136486	 76.650558	 72.911726	 66.645830	 65.223386	 60.752111	 84.065951	 77.493598	 76.577042	 70.450393	 66.603151	 62.162054	 
702.000000	 83.134605	 76.668979	 72.909426	 66.663586	 65.222827	 60.764812	 84.064071	 77.512264	 76.575077	 70.467793	 66.602676	 62.174669	 
704.000000	 83.132656	 76.687289	 72.907043	 66.681234	 65.222247	 60.777439	 84.062123	 77.530819	 76.573040	 70.485088	 66.602184	 62.187211	 
706.000000	 83.130637	 76.705491	 72.904572	 66.698775	 65.221645	 60.789993	 84.060106	 77.549263	 76.570932	 70.502280	 66.601675	 62.199682	 
708.000000	 83.128545	 76.723584	 72.902012	 66.716211	 65.221022	 60.802475	 84.058016	 77.567598	 76.568747	 70.519368	 66.601148	 62.212080	 
710.000000	 83.126377	 76.741569	 72.899359	 66.733541	 65.220376	 60.814885	 84.055856	 77.585823	 76.566485	 70.536355	 66.600602	 62.224408	 
712.000000	 83.124131	 76.759448	 72.896608	 66.750766	 65.219705	 60.827223	 84.053622	 77.603940	 76.564141	 70.553239	 66.600036	 62.236664	 
714.000000	 83.121804	 76.777220	 72.893758	 66.767887	 65.219010	 60.839491	 84.051308	 77.621950	 76.561714	 70.570023	 66.599451	 62.248851	 
716.000000	 83.119392	 76.794886	 72.890803	 66.784905	 65.218290	 60.851688	 84.048912	 77.639852	 76.559199	 70.586706	 66.598844	 62.260968	 
718.000000	 83.116893	 76.812447	 72.887740	 66.801820	 65.217542	 60.863815	 84.046430	 77.657648	 76.556595	 70.603289	 66.598216	 62.273016	 
720.000000	 83.114304	 76.829904	 72.884564	 66.818632	 65.216767	 60.875873	 84.043860	 77.675338	 76.553897	 70.619772	 66.597566	 62.284995	 
722.000000	 83.111621	 76.847257	 72.881272	 66.835342	 65.215964	 60.887863	 84.041198	 77.692923	 76.551103	 70.636157	 66.596892	 62.296906	 
724.000000	 83.108840	 76.864506	 72.877860	 66.851951	 65.215130	 60.899783	 84.038440	 77.710404	 76.548208	 70.652444	 66.596194	 62.308750	 
726.000000	 83.105958	 76.881653	 72.874322	 66.868459	 65.214265	 60.911636	 84.035585	 77.727780	 76.545209	 70.668633	 66.595472	 62.320527	 
728.000000	 83.102971	 76.898698	 72.870653	 66.884866	 65.213368	 60.923422	 84.032627	 77.745054	 76.542103	 70.684725	 66.594723	 62.332237	 
730.000000	 83.099876	 76.915641	 72.866850	 66.901174	 65.212437	 60.935141	 84.029563	 77.762224	 76.538885	 70.700719	 66.593948	 62.343881	 
732.000000	 83.096668	 76.932483	 72.862906	 66.917382	 65.211472	 60.946793	 84.026390	 77.779292	 76.535551	 70.716618	 66.593145	 62.355459	 
734.000000	 83.093342	 76.949224	 72.858817	 66.933491	 65.210470	 60.958379	 84.023103	 77.796259	 76.532098	 70.732421	 66.592314	 62.366972	 
736.000000	 83.089896	 76.965866	 72.854576	 66.949501	 65.209431	 60.969899	 84.019699	 77.813124	 76.528520	 70.748129	 66.591453	 62.378421	 
738.000000	 83.086323	 76.982407	 72.850178	 66.965412	 65.208353	 60.981355	 84.016172	 77.829888	 76.524814	 70.763741	 66.590561	 62.389805	 
740.000000	 83.082620	 76.998850	 72.845617	 66.981226	 65.207234	 60.992745	 84.012520	 77.846552	 76.520974	 70.779260	 66.589637	 62.401125	 
742.000000	 83.078781	 77.015194	 72.840887	 66.996942	 65.206072	 61.004071	 84.008736	 77.863117	 76.516997	 70.794684	 66.588680	 62.412382	 
744.000000	 83.074801	 77.031440	 72.835981	 67.012561	 65.204867	 61.015333	 84.004817	 77.879582	 76.512875	 70.810014	 66.587689	 62.423576	 
746.000000	 83.070676	 77.047587	 72.830892	 67.028083	 65.203616	 61.026532	 84.000757	 77.895948	 76.508606	 70.825251	 66.586663	 62.434707	 
748.000000	 83.066398	 77.063637	 72.825613	 67.043507	 65.202318	 61.037667	 83.996551	 77.912215	 76.504182	 70.840395	 66.585600	 62.445776	 
750.000000	 83.061964	 77.079590	 72.820137	 67.058836	 65.200969	 61.048740	 83.992195	 77.928384	 76.499599	 70.855446	 66.584499	 62.456784	 
752.000000	 83.057365	 77.095447	 72.814455	 67.074068	 65.199570	 61.059750	 83.987682	 77.944455	 76.494850	 70.870404	 66.583358	 62.467729	 
754.000000	 83.052598	 77.111206	 72.808561	 67.089204	 65.198117	 61.070698	 83.983006	 77.960429	 76.489930	 70.885271	 66.582177	 62.478614	 
756.000000	 83.047654	 77.126870	 72.802445	 67.104244	 65.196608	 61.081585	 83.978163	 77.976306	 76.484832	 70.900045	 66.580953	 62.489438	 
758.000000	 83.042527	 77.142437	 72.796100	 67.119188	 65.195041	 61.092409	 83.973145	 77.992086	 76.479549	 70.914728	 66.579686	 62.500202	 
760.000000	 83.037210	 77.157909	 72.789515	 67.134037	 65.193414	 61.103173	 83.967947	 78.007771	 76.474076	 70.929320	 66.578373	 62.510906	 
762.000000	 83.031697	 77.173285	 72.782681	 67.148790	 65.191723	 61.113876	 83.962562	 78.023359	 76.468404	 70.943820	 66.577013	 62.521550	 
764.000000	 83.025978	 77.188567	 72.775588	 67.163448	 65.189968	 61.124519	 83.956982	 78.038852	 76.462528	 70.958229	 66.575604	 62.532135	 
766.000000	 83.020047	 77.203753	 72.768227	 67.178010	 65.188144	 61.135101	 83.951202	 78.054249	 76.456438	 70.972547	 66.574145	 62.542661	 
768.000000	 83.013894	 77.218844	 72.760586	 67.192477	 65.186248	 61.145624	 83.945213	 78.069550	 76.450127	 70.986775	 66.572634	 62.553129	 
770.000000	 83.007512	 77.233841	 72.752654	 67.206848	 65.184279	 61.156086	 83.939008	 78.084756	 76.443587	 71.000912	 66.571068	 62.563538	 
772.000000	 83.000892	 77.248742	 72.744419	 67.221124	 65.182233	 61.166490	 83.932578	 78.099866	 76.436810	 71.014958	 66.569447	 62.573889	 
774.000000	 82.994024	 77.263550	 72.735869	 67.235305	 65.180106	 61.176834	 83.925917	 78.114882	 76.429787	 71.028914	 66.567767	 62.584183	 
776.000000	 82.986898	 77.278263	 72.726992	 67.249390	 65.177895	 61.187120	 83.919015	 78.129803	 76.422508	 71.042779	 66.566026	 62.594419	 
778.000000	 82.979504	 77.292881	 72.717773	 67.263379	 65.175597	 61.197347	 83.911863	 78.144628	 76.414965	 71.056554	 66.564224	 62.604598	 
780.000000	 82.971833	 77.307406	 72.708200	 67.277273	 65.173208	 61.207515	 83.904452	 78.159359	 76.407147	 71.070238	 66.562356	 62.614720	 
782.000000	 82.963872	 77.321835	 72.698256	 67.291070	 65.170723	 61.217625	 83.896773	 78.173996	 76.399045	 71.083832	 66.560422	 62.624785	 
784.000000	 82.955610	 77.336171	 72.687928	 67.304771	 65.168140	 61.227678	 83.888816	 78.188537	 76.390647	 71.097335	 66.558418	 62.634795	 
786.000000	 82.947036	 77.350411	 72.677199	 67.318375	 65.165452	 61.237672	 83.880570	 78.202984	 76.381943	 71.110748	 66.556342	 62.644748	 
788.000000	 82.938137	 77.364558	 72.666053	 67.331883	 65.162657	 61.247609	 83.872025	 78.217336	 76.372921	 71.124070	 66.554192	 62.654645	 
790.000000	 82.928899	 77.378609	 72.654471	 67.345293	 65.159749	 61.257488	 83.863170	 78.231593	 76.363570	 71.137301	 66.551965	 62.664487	 
792.000000	 82.919311	 77.392565	 72.642437	 67.358605	 65.156723	 61.267309	 83.853994	 78.245755	 76.353915	 71.150441	 66.549658	 62.674273	 
794.000000	 82.909356	 77.406427	 72.629931	 67.371820	 65.153574	 61.277074	 83.844484	 78.259822	 76.343992	 71.163490	 66.547268	 62.684004	 
796.000000	 82.899021	 77.420193	 72.616932	 67.384936	 65.150297	 61.286781	 83.834629	 78.273794	 76.333714	 71.176447	 66.544792	 62.693681	 
798.000000	 82.888291	 77.433863	 72.603421	 67.397952	 65.146885	 61.296432	 83.824415	 78.287671	 76.323066	 71.189312	 66.542227	 62.703302	 
800.000000	 82.877148	 77.447437	 72.589374	 67.410869	 65.143333	 61.306025	 83.813829	 78.301452	 76.312037	 71.202086	 66.539570	 62.712869	 
802.000000	 82.865577	 77.460915	 72.574771	 67.423685	 65.139635	 61.315561	 83.802858	 78.315137	 76.300611	 71.214767	 66.536819	 62.722381	 
804.000000	 82.853560	 77.474296	 72.559586	 67.436401	 65.135783	 61.325041	 83.791487	 78.328726	 76.288775	 71.227355	 66.533968	 62.731839	 
806.000000	 82.841078	 77.487580	 72.543794	 67.449015	 65.131771	 61.334463	 83.779702	 78.342218	 76.276513	 71.239850	 66.531016	 62.741243	 
808.000000	 82.828113	 77.500767	 72.527369	 67.461526	 65.127591	 61.343829	 83.767488	 78.355614	 76.263812	 71.252251	 66.527957	 62.750593	 
810.000000	 82.814646	 77.513855	 72.510284	 67.473933	 65.123236	 61.353138	 83.754827	 78.368913	 76.250654	 71.264559	 66.524790	 62.759889	 
812.000000	 82.800654	 77.526845	 72.492510	 67.486237	 65.118697	 61.362390	 83.741705	 78.382114	 76.237024	 71.276771	 66.521509	 62.769131	 
814.000000	 82.786116	 77.539735	 72.474016	 67.498435	 65.113967	 61.371585	 83.728104	 78.395217	 76.222904	 71.288889	 66.518111	 62.778320	 
816.000000	 82.771011	 77.552526	 72.454771	 67.510526	 65.109035	 61.380723	 83.714006	 78.408221	 76.208277	 71.300910	 66.514591	 62.787455	 
818.000000	 82.755313	 77.565215	 72.434742	 67.522510	 65.103892	 61.389804	 83.699393	 78.421126	 76.193125	 71.312836	 66.510946	 62.796537	 
820.000000	 82.738999	 77.577804	 72.414036	 67.534386	 65.098529	 61.398827	 83.684246	 78.433932	 76.177429	 71.324664	 66.507171	 62.805565	 
822.000000	 82.722043	 77.590290	 72.392517	 67.546151	 65.092935	 61.407794	 83.668545	 78.446637	 76.161170	 71.336394	 66.503262	 62.814540	 
824.000000	 82.704417	 77.602673	 72.370121	 67.557805	 65.087099	 61.416702	 83.652270	 78.459242	 76.144328	 71.348026	 66.499214	 62.823462	 
826.000000	 82.686095	 77.614951	 72.346808	 67.569346	 65.081009	 61.425553	 83.635401	 78.471745	 76.126881	 71.359559	 66.495022	 62.832330	 
828.000000	 82.667045	 77.627125	 72.322537	 67.580773	 65.074653	 61.434346	 83.617915	 78.484145	 76.108810	 71.370991	 66.490682	 62.841146	 
830.000000	 82.647239	 77.639193	 72.297265	 67.592085	 65.068018	 61.443081	 83.599789	 78.496442	 76.090091	 71.382322	 66.486189	 62.849908	 
832.000000	 82.626642	 77.651153	 72.270947	 67.603278	 65.061089	 61.451757	 83.581000	 78.508635	 76.070702	 71.393551	 66.481536	 62.858617	 
834.000000	 82.605222	 77.663005	 72.243534	 67.614352	 65.053853	 61.460375	 83.561524	 78.520724	 76.050619	 71.404676	 66.476718	 62.867272	 
836.000000	 82.582945	 77.674747	 72.214979	 67.625305	 65.046294	 61.468933	 83.541336	 78.532706	 76.029818	 71.415698	 66.471731	 62.875875	 
838.000000	 82.559772	 77.686378	 72.185227	 67.636135	 65.038397	 61.477432	 83.520410	 78.544581	 76.008274	 71.426614	 66.466568	 62.884424	 
840.000000	 82.535667	 77.697897	 72.154225	 67.646839	 65.030143	 61.485871	 83.498719	 78.556349	 75.985961	 71.437441	 66.461225	 62.892920	 
842.000000	 82.510590	 77.709301	 72.121914	 67.657415	 65.021517	 61.494249	 83.476236	 78.568007	 75.962853	 71.448164	 66.455695	 62.901363	 
844.000000	 82.484499	 77.720590	 72.088234	 67.667862	 65.012499	 61.502566	 83.452933	 78.579556	 75.938923	 71.458781	 66.449973	 62.909752	 
846.000000	 82.457351	 77.731762	 72.053122	 67.678175	 65.003070	 61.510822	 83.428780	 78.590993	 75.914142	 71.469289	 66.444052	 62.918087	 
848.000000	 82.429101	 77.742814	 72.016511	 67.688354	 64.993209	 61.519016	 83.403748	 78.602317	 75.888483	 71.479687	 66.437927	 62.926369	 
850.000000	 82.399703	 77.753746	 71.978330	 67.698395	 64.982893	 61.527147	 83.377804	 78.613527	 75.861914	 71.489974	 66.431592	 62.934598	 
852.000000	 82.369106	 77.764555	 71.938506	 67.708294	 64.972101	 61.535215	 83.350918	 78.624621	 75.834407	 71.500148	 66.425040	 62.942772	 
854.000000	 82.337261	 77.775238	 71.896961	 67.718050	 64.960806	 61.543219	 83.323056	 78.635599	 75.805928	 71.510208	 66.418265	 62.950892	 
856.000000	 82.304114	 77.785795	 71.853615	 67.727658	 64.948985	 61.551158	 83.294184	 78.646458	 75.776447	 71.520153	 66.411260	 62.958958	 
858.000000	 82.269610	 77.796223	 71.808382	 67.737116	 64.936607	 61.559031	 83.264268	 78.657197	 75.745931	 71.529980	 66.404017	 62.966970	 
860.000000	 82.233691	 77.806518	 71.761173	 67.746419	 64.923646	 61.566837	 83.233271	 78.667815	 75.714346	 71.539689	 66.396530	 62.974927	 
862.000000	 82.196299	 77.816680	 71.711895	 67.755564	 64.910070	 61.574576	 83.201158	 78.678309	 75.681659	 71.549277	 66.388792	 62.982830	 
864.000000	 82.157372	 77.826705	 71.660448	 67.764547	 64.895850	 61.582247	 83.167891	 78.688677	 75.647833	 71.558742	 66.380797	 62.990677	 
866.000000	 82.116846	 77.836590	 71.606732	 67.773364	 64.880951	 61.589847	 83.133432	 78.698918	 75.612835	 71.568083	 66.372538	 62.998470	 
868.000000	 82.074657	 77.846332	 71.550637	 67.782011	 64.865340	 61.597377	 83.097744	 78.709031	 75.576628	 71.577298	 66.364010	 63.006207	 
870.000000	 82.030734	 77.855930	 71.492051	 67.790482	 64.848978	 61.604835	 83.060784	 78.719012	 75.539174	 71.586385	 66.355204	 63.013888	 
872.000000	 81.985007	 77.865378	 71.430855	 67.798784	 64.831826	 61.612219	 83.022513	 78.728860	 75.500436	 71.595342	 66.346111	 63.021513	 
874.000000	 81.937403	 77.874675	 71.366925	 67.806925	 64.813844	 61.619529	 82.982889	 78.738572	 75.460376	 71.604166	 66.336727	 63.029082	 
876.000000	 81.887848	 77.883817	 71.300133	 67.814879	 64.794991	 61.626763	 82.941871	 78.748147	 75.418956	 71.612856	 66.327045	 63.036594	 
878.000000	 81.836267	 77.892800	 71.230345	 67.822639	 64.775222	 61.633918	 82.899417	 78.757581	 75.376137	 71.621409	 66.317060	 63.044050	 
880.000000	 81.783216	 77.901620	 71.157418	 67.830201	 64.754490	 61.640994	 82.855485	 78.766874	 75.331880	 71.629823	 66.306763	 63.051448	 
882.000000	 81.728852	 77.910274	 71.081814	 67.837557	 64.732746	 61.647989	 82.810031	 78.776021	 75.286145	 71.638095	 66.296147	 63.058789	 
884.000000	 81.672292	 77.918758	 71.003010	 67.844703	 64.709940	 61.654901	 82.763012	 78.785021	 75.238893	 71.646223	 66.285207	 63.066073	 
886.000000	 81.613456	 77.927067	 70.920663	 67.851631	 64.686020	 61.661728	 82.714386	 78.793871	 75.190085	 71.654205	 66.273936	 63.073297	 
888.000000	 81.552266	 77.935198	 70.834611	 67.858334	 64.660933	 61.668468	 82.664110	 78.802568	 75.139682	 71.662037	 66.262332	 63.080464	 
890.000000	 81.488642	 77.943145	 70.744687	 67.864806	 64.634625	 61.675118	 82.612142	 78.811110	 75.087643	 71.669718	 66.250390	 63.087571	 
892.000000	 81.422502	 77.950905	 70.650720	 67.871038	 64.607038	 61.681677	 82.558439	 78.819493	 75.033931	 71.677244	 66.238106	 63.094619	 
894.000000	 81.353768	 77.958472	 70.552529	 67.877023	 64.578114	 61.688143	 82.502960	 78.827715	 74.978505	 71.684613	 66.225476	 63.101608	 
896.000000	 81.282359	 77.965842	 70.449932	 67.882754	 64.547791	 61.694512	 82.445664	 78.835773	 74.921328	 71.691822	 66.212497	 63.108536	 
898.000000	 81.208199	 77.973009	 70.342738	 67.888220	 64.516009	 61.700781	 82.386510	 78.843663	 74.862360	 71.698867	 66.199165	 63.115405	 
900.000000	 81.131210	 77.979969	 70.230754	 67.893415	 64.482702	 61.706950	 82.325460	 78.851384	 74.801564	 71.705747	 66.185476	 63.122212	 
902.000000	 81.051320	 77.986716	 70.113783	 67.898327	 64.447808	 61.713014	 82.262474	 78.858930	 74.738903	 71.712458	 66.171429	 63.128958	 
904.000000	 80.968456	 77.993245	 69.991622	 67.902948	 64.411254	 61.718970	 82.197515	 78.866300	 74.674340	 71.718996	 66.157014	 63.135642	 
906.000000	 80.882551	 77.999550	 69.864068	 67.907267	 64.372972	 61.724816	 82.130548	 78.873490	 74.607839	 71.725359	 66.142226	 63.142265	 
908.000000	 80.793542	 78.005626	 69.730914	 67.911275	 64.332897	 61.730548	 82.061539	 78.880497	 74.539365	 71.731544	 66.127062	 63.148825	 
910.000000	 80.701375	 78.011467	 69.591952	 67.914961	 64.290962	 61.736163	 81.990458	 78.887317	 74.468888	 71.737547	 66.111521	 63.155322	 
912.000000	 80.605999	 78.017068	 69.446976	 67.918313	 64.247103	 61.741657	 81.917277	 78.893947	 74.396374	 71.743365	 66.095600	 63.161756	 
914.000000	 80.507372	 78.022422	 69.295777	 67.921321	 64.201258	 61.747028	 81.841972	 78.900384	 74.321796	 71.748994	 66.079298	 63.168126	 
916.000000	 80.405460	 78.027523	 69.138154	 67.923972	 64.153364	 61.752270	 81.764520	 78.906624	 74.245126	 71.754433	 66.062612	 63.174432	 
918.000000	 80.300239	 78.032367	 68.973904	 67.926255	 64.103365	 61.757381	 81.684901	 78.912664	 74.166337	 71.759676	 66.045542	 63.180673	 
920.000000	 80.191695	 78.036946	 68.802835	 67.928156	 64.051204	 61.762357	 81.603102	 78.918500	 74.085407	 71.764721	 66.028085	 63.186850	 
922.000000	 80.079824	 78.041256	 68.624758	 67.929664	 63.996830	 61.767193	 81.519108	 78.924129	 74.002313	 71.769564	 66.010238	 63.192961	 
924.000000	 79.964627	 78.045291	 68.439493	 67.930765	 63.940185	 61.771887	 81.432907	 78.929547	 73.917034	 71.774202	 65.991984	 63.199007	 
926.000000	 79.846120	 78.049044	 68.246872	 67.931446	 63.881216	 61.776433	 81.344490	 78.934752	 73.829550	 71.778632	 65.973306	 63.204986	 
928.000000	 79.724332	 78.052511	 68.046737	 67.931694	 63.819880	 61.780827	 81.253852	 78.939739	 73.739845	 71.782849	 65.954190	 63.210898	 
930.000000	 79.599308	 78.055686	 67.838950	 67.931495	 63.756143	 61.785066	 81.160995	 78.944506	 73.647907	 71.786852	 65.934624	 63.216743	 
932.000000	 79.471108	 78.058563	 67.623390	 67.930835	 63.689982	 61.789145	 81.065927	 78.949048	 73.553728	 71.790635	 65.914600	 63.222520	 
934.000000	 79.339810	 78.061139	 67.399958	 67.929701	 63.621387	 61.793060	 80.968662	 78.953364	 73.457305	 71.794196	 65.894113	 63.228229	 
936.000000	 79.205504	 78.063408	 67.168575	 67.928078	 63.550361	 61.796807	 80.869220	 78.957449	 73.358637	 71.797532	 65.873162	 63.233868	 
938.000000	 79.068294	 78.065365	 66.929186	 67.925953	 63.476915	 61.800382	 80.767622	 78.961300	 73.257728	 71.800639	 65.851744	 63.239438	 
940.000000	 78.928287	 78.067007	 66.681757	 67.923311	 63.401053	 61.803780	 80.663886	 78.964915	 73.154580	 71.803514	 65.829837	 63.244938	 
942.000000	 78.785599	 78.068329	 66.426279	 67.920140	 63.322796	 61.806999	 80.558032	 78.968290	 73.049193	 71.806153	 65.807426	 63.250367	 
944.000000	 78.640361	 78.069328	 66.162770	 67.916424	 63.242190	 61.810033	 80.450092	 78.971423	 72.941577	 71.808553	 65.784508	 63.255724	 
946.000000	 78.492709	 78.070001	 65.891277	 67.912152	 63.159281	 61.812879	 80.340095	 78.974311	 72.831744	 71.810712	 65.761077	 63.261010	 
948.000000	 78.342780	 78.070345	 65.611870	 67.907309	 63.074126	 61.815535	 80.228075	 78.976950	 72.719704	 71.812626	 65.737122	 63.266223	 
950.000000	 78.193332	 78.070358	 65.348285	 67.901933	 62.986797	 61.817995	 80.114068	 78.979339	 72.605475	 71.814291	 65.712645	 63.271362	 
952.000000	 78.045085	 78.070036	 65.081519	 67.896020	 62.897376	 61.820258	 79.998114	 78.981475	 72.489076	 71.815706	 65.687653	 63.276428	 
954.000000	 77.895022	 78.069378	 64.806757	 67.889557	 62.812402	 61.822334	 79.880254	 78.983355	 72.370528	 71.816867	 65.662156	 63.281419	 
956.000000	 77.743259	 78.068383	 64.524112	 67.882531	 62.738272	 61.824246	 79.760534	 78.984978	 72.249853	 71.817770	 65.636181	 63.286335	 
958.000000	 77.589899	 78.067050	 64.233720	 67.874930	 62.661615	 61.825990	 79.638995	 78.986340	 72.127073	 71.818415	 65.609758	 63.291175	 
960.000000	 77.435028	 78.065376	 63.951520	 67.866740	 62.582527	 61.827563	 79.515675	 78.987441	 72.002208	 71.818797	 65.582920	 63.295940	 
962.000000	 77.278698	 78.063362	 63.681625	 67.857963	 62.501089	 61.828961	 79.390601	 78.988277	 71.875272	 71.818914	 65.555675	 63.300628	 
964.000000	 77.120949	 78.061006	 63.404096	 67.848626	 62.417387	 61.830179	 79.263798	 78.988847	 71.753248	 71.818764	 65.528044	 63.305240	 
966.000000	 76.961807	 78.058307	 63.148847	 67.838773	 62.331517	 61.831215	 79.135297	 78.989150	 71.629264	 71.818343	 65.500062	 63.309775	 
968.000000	 76.801297	 78.055266	 62.892926	 67.828434	 62.255907	 61.832080	 79.005138	 78.989183	 71.503344	 71.817650	 65.471800	 63.314232	 
970.000000	 76.639430	 78.051881	 62.631571	 67.817630	 62.185448	 61.832795	 78.873361	 78.988945	 71.380403	 71.816682	 65.443336	 63.318613	 
972.000000	 76.476203	 78.048151	 62.388269	 67.806348	 62.134151	 61.833396	 78.740008	 78.988434	 71.260038	 71.815437	 65.414757	 63.322917	 
974.000000	 76.311598	 78.044075	 62.136797	 67.794574	 62.079751	 61.833882	 78.605116	 78.987648	 71.137832	 71.813912	 65.386143	 63.327145	 
976.000000	 76.145586	 78.039653	 61.877089	 67.782293	 62.021826	 61.834255	 78.468724	 78.986587	 71.013774	 71.812105	 65.357577	 63.331298	 
978.000000	 75.978135	 78.034884	 61.609082	 67.769493	 61.975870	 61.834544	 78.330872	 78.985249	 70.887863	 71.810014	 65.329154	 63.335375	 
980.000000	 75.809201	 78.029766	 61.332704	 67.756160	 61.930695	 61.834740	 78.195861	 78.983632	 70.760097	 71.807638	 65.300958	 63.339378	 
982.000000	 75.642126	 78.024298	 61.047879	 67.742280	 61.881132	 61.834834	 78.061732	 78.981736	 70.630481	 71.804974	 65.273068	 63.343308	 
984.000000	 75.477168	 78.018479	 60.754516	 67.727839	 61.827230	 61.834819	 77.926213	 78.979560	 70.499022	 71.802020	 65.245560	 63.347167	 
986.000000	 75.313316	 78.012307	 60.452520	 67.712824	 61.769055	 61.834686	 77.789326	 78.977103	 70.365726	 71.798774	 65.218515	 63.350955	 
988.000000	 75.150924	 78.005780	 60.141780	 67.697220	 61.706676	 61.834427	 77.651090	 78.974363	 70.230603	 71.795236	 65.192008	 63.354674	 
990.000000	 74.986992	 77.998896	 59.833101	 67.681013	 61.640167	 61.834036	 77.511525	 78.971340	 70.093662	 71.791403	 65.166106	 63.358326	 
992.000000	 74.821500	 77.991654	 59.520366	 67.664190	 61.569592	 61.833504	 77.370645	 78.968033	 69.954911	 71.787273	 65.140859	 63.361913	 
994.000000	 74.654437	 77.984051	 59.197128	 67.646735	 61.495270	 61.832824	 77.228466	 78.964442	 69.814356	 71.782846	 65.116459	 63.365436	 
996.000000	 74.485805	 77.976087	 58.863326	 67.628650	 61.417067	 61.831990	 77.085004	 78.960566	 69.672006	 71.778120	 65.092851	 63.368897	 
998.000000	 74.315623	 77.967759	 58.518897	 67.609919	 61.335023	 61.830994	 76.940282	 78.956403	 69.527871	 71.773093	 65.070002	 63.372298	 
1000.000000	 74.143924	 77.959065	 58.163782	 67.590526	 61.249222	 61.829831	 76.794325	 78.951955	 69.381964	 71.767765	 65.047938	 63.375641	 
1002.000000	 73.970755	 77.950004	 57.797924	 67.570482	 61.159746	 61.828493	 76.647161	 78.947219	 69.234300	 71.762134	 65.026675	 63.378928	 
1004.000000	 73.796174	 77.940575	 57.421265	 67.549774	 61.066681	 61.826975	 76.498818	 78.942197	 69.084889	 71.756200	 65.006227	 63.382161	 
1006.000000	 73.626051	 77.930776	 57.033757	 67.528383	 60.970113	 61.825271	 76.349327	 78.936887	 68.933747	 71.749960	 64.986595	 63.385341	 
1008.000000	 73.458415	 77.920607	 56.650238	 67.506290	 60.870134	 61.823375	 76.198721	 78.931290	 68.790462	 71.743415	 64.967780	 63.388471	 
1010.000000	 73.289760	 77.910068	 56.283678	 67.483540	 60.766826	 61.821281	 76.047033	 78.925405	 68.647239	 71.736563	 64.949765	 63.391553	 
1012.000000	 73.120168	 77.899157	 55.914351	 67.460184	 60.660281	 61.818986	 75.894300	 78.919232	 68.502421	 71.729403	 64.932535	 63.394589	 
1014.000000	 72.949734	 77.887876	 55.543951	 67.436234	 60.550593	 61.816482	 75.740570	 78.912772	 68.356034	 71.721935	 64.916075	 63.397579	 
1016.000000	 72.778568	 77.876225	 55.210086	 67.411582	 60.449219	 61.813792	 75.585902	 78.906025	 68.208120	 71.714159	 64.900380	 63.400527	 
1018.000000	 72.606795	 77.864204	 54.874441	 67.386230	 60.359229	 61.810936	 75.430368	 78.898990	 68.058730	 71.706072	 64.885450	 63.403433	 
1020.000000	 72.434551	 77.851815	 54.527119	 67.360199	 60.265885	 61.807907	 75.274046	 78.891670	 67.907926	 71.697676	 64.871291	 63.406300	 
1022.000000	 72.270899	 77.839060	 54.202872	 67.333536	 60.184357	 61.804736	 75.117035	 78.884064	 67.755784	 71.688970	 64.857922	 63.409130	 
1024.000000	 72.108912	 77.825942	 53.873304	 67.306242	 60.106606	 61.801426	 74.959438	 78.876173	 67.602389	 71.679953	 64.845361	 63.411923	 
1026.000000	 71.946955	 77.812463	 53.540999	 67.278356	 60.024827	 61.797970	 74.801377	 78.868000	 67.447849	 71.670626	 64.833637	 63.414683	 
1028.000000	 71.785197	 77.798627	 53.197647	 67.249861	 59.956655	 61.794393	 74.642986	 78.859545	 67.292282	 71.660990	 64.822783	 63.417410	 
1030.000000	 71.623822	 77.784438	 52.843359	 67.220737	 59.888356	 61.790697	 74.484411	 78.850811	 67.135819	 71.651044	 64.812834	 63.420108	 
1032.000000	 71.463024	 77.769900	 52.478300	 67.190969	 59.815647	 61.786875	 74.325817	 78.841800	 66.978617	 71.640790	 64.803842	 63.422778	 
1034.000000	 71.303025	 77.755020	 52.102683	 67.160537	 59.738741	 61.782919	 74.167387	 78.832514	 66.820838	 71.630228	 64.795877	 63.425421	 
1036.000000	 71.154562	 77.739801	 51.716772	 67.129427	 59.678626	 61.778858	 74.009320	 78.822956	 66.662657	 71.619361	 64.789008	 63.428042	 
1038.000000	 71.007465	 77.724252	 51.341295	 67.097623	 59.623335	 61.774705	 73.851821	 78.813130	 66.504261	 71.608189	 64.783303	 63.430641	 
1040.000000	 70.861731	 77.708379	 51.045662	 67.065110	 59.564105	 61.770455	 73.695110	 78.803040	 66.347101	 71.596942	 64.778838	 63.433221	 
1042.000000	 70.717594	 77.692575	 50.746785	 67.031875	 59.501178	 61.766101	 73.539410	 78.792689	 66.202364	 71.585438	 64.775684	 63.435786	 
1044.000000	 70.575308	 77.676867	 50.439361	 66.997956	 59.434833	 61.761636	 73.384964	 78.782082	 66.058010	 71.573631	 64.773927	 63.438337	 
1046.000000	 70.435139	 77.660869	 50.123611	 66.963359	 59.365372	 61.757056	 73.232024	 78.771224	 65.914237	 71.561526	 64.773655	 63.440879	 
1048.000000	 70.298356	 77.644590	 49.813306	 66.928072	 59.315140	 61.752400	 73.080859	 78.760121	 65.771249	 71.549125	 64.774961	 63.443413	 
1050.000000	 70.173002	 77.628040	 49.512668	 66.892216	 59.264626	 61.747665	 72.931755	 78.748778	 65.629271	 71.536432	 64.777934	 63.445943	 
1052.000000	 70.050387	 77.611230	 49.204389	 66.855806	 59.219673	 61.742864	 72.785012	 78.737202	 65.488531	 71.523452	 64.782651	 63.448473	 
1054.000000	 69.930810	 77.594169	 48.890192	 66.818859	 59.189755	 61.738025	 72.640940	 78.725399	 65.349237	 71.510188	 64.789200	 63.451006	 
1056.000000	 69.814621	 77.576872	 48.582412	 66.781392	 59.163810	 61.733142	 72.499892	 78.713377	 65.211633	 71.496647	 64.797707	 63.453545	 
1058.000000	 69.702196	 77.559349	 48.271739	 66.743433	 59.152446	 61.728246	 72.362256	 78.701193	 65.075985	 71.482833	 64.808307	 63.456095	 
1060.000000	 69.593939	 77.541615	 47.964498	 66.704971	 59.146120	 61.723379	 72.228442	 78.689003	 64.942571	 71.468753	 64.821140	 63.458660	 
1062.000000	 69.490262	 77.523683	 47.657879	 66.665997	 59.152123	 61.718542	 72.098877	 78.676615	 64.811679	 71.454415	 64.836341	 63.461244	 
1064.000000	 69.392431	 77.505570	 47.382586	 66.626501	 59.154961	 61.713728	 71.974023	 78.664040	 64.683608	 71.439825	 64.854059	 63.463852	 
1066.000000	 69.306445	 77.487291	 47.131086	 66.586478	 59.155048	 61.708933	 71.854373	 78.651288	 64.558673	 71.424992	 64.874423	 63.466488	 
1068.000000	 69.225966	 77.468905	 46.910201	 66.545934	 59.152831	 61.704152	 71.740443	 78.638371	 64.437198	 71.409926	 64.897567	 63.469158	 
1070.000000	 69.151487	 77.450548	 46.697497	 66.504867	 59.148805	 61.699381	 71.632795	 78.625300	 64.319538	 71.394637	 64.923641	 63.471867	 
1072.000000	 69.083521	 77.432076	 46.507714	 66.463273	 59.143487	 61.694619	 71.532023	 78.612091	 64.207576	 71.379134	 64.952803	 63.474620	 
1074.000000	 69.022602	 77.413510	 46.321909	 66.421170	 59.137424	 61.689863	 71.438754	 78.598758	 64.110731	 71.363431	 64.985225	 63.477424	 
1076.000000	 68.969297	 77.394873	 46.161655	 66.378577	 59.131167	 61.685113	 71.353674	 78.585316	 64.018443	 71.347539	 65.021076	 63.480284	 
1078.000000	 68.924192	 77.376187	 46.031762	 66.335565	 59.125277	 61.680369	 71.277502	 78.571783	 63.931111	 71.331473	 65.060537	 63.483206	 
1080.000000	 68.887868	 77.357478	 45.905405	 66.292227	 59.120292	 61.675635	 71.210979	 78.558177	 63.849126	 71.315247	 65.103780	 63.486198	 
1082.000000	 68.860927	 77.338771	 45.810806	 66.248649	 59.141714	 61.670957	 71.154906	 78.544518	 63.772930	 71.298878	 65.150974	 63.489267	 
1084.000000	 68.843996	 77.320093	 45.748239	 66.204841	 59.191774	 61.666388	 71.110134	 78.530827	 63.702973	 71.282384	 65.202301	 63.492418	 
1086.000000	 68.837669	 77.301472	 45.688678	 66.160904	 59.250619	 61.661930	 71.077530	 78.517126	 63.639727	 71.265783	 65.257913	 63.495661	 
1088.000000	 68.842538	 77.282938	 45.627383	 66.116878	 59.335279	 61.657658	 71.058016	 78.503440	 63.583676	 71.249095	 65.318000	 63.499002	 
1090.000000	 68.859093	 77.264520	 45.563844	 66.072794	 59.436384	 61.653586	 71.052531	 78.489793	 63.535243	 71.232342	 65.382691	 63.502450	 
1092.000000	 68.887679	 77.246249	 45.524353	 66.028675	 59.537326	 61.649714	 71.062042	 78.476214	 63.494751	 71.215548	 65.452118	 63.506013	 
1094.000000	 68.928355	 77.228155	 45.496510	 65.984552	 59.638213	 61.646041	 71.087519	 78.462731	 63.462357	 71.198737	 65.526388	 63.509698	 
1096.000000	 68.981383	 77.210270	 45.470207	 65.940528	 59.739158	 61.642565	 71.130003	 78.449375	 63.447708	 71.181935	 65.605642	 63.513515	 
1098.000000	 69.047322	 77.192625	 45.451662	 65.896750	 59.840266	 61.639285	 71.190737	 78.436177	 63.445258	 71.165171	 65.690060	 63.517471	 
1100.000000	 69.126747	 77.175251	 45.430950	 65.853280	 59.971860	 61.636257	 71.270900	 78.423173	 63.453769	 71.148474	 65.779891	 63.521577	 
1102.000000	 69.220096	 77.158175	 45.407982	 65.810146	 60.152435	 61.633566	 71.369357	 78.410394	 63.473190	 71.131873	 65.875371	 63.525841	 
1104.000000	 69.327547	 77.141422	 45.388287	 65.767351	 60.352190	 61.631246	 71.483404	 78.397868	 63.502947	 71.115391	 65.976362	 63.530273	 
1106.000000	 69.449069	 77.125014	 45.361847	 65.724887	 60.547726	 61.629288	 71.612435	 78.385620	 63.543609	 71.099035	 66.082417	 63.534879	 
1108.000000	 69.584569	 77.108972	 45.339471	 65.682746	 60.738907	 61.627682	 71.754666	 78.373672	 63.596379	 71.082817	 66.193739	 63.539670	 
1110.000000	 69.733583	 77.093313	 45.341715	 65.640937	 60.925629	 61.626418	 71.909271	 78.362046	 63.662187	 71.066752	 66.310523	 63.544654	 
1112.000000	 69.895068	 77.078051	 45.380593	 65.599478	 61.107703	 61.625486	 72.077215	 78.350762	 63.741311	 71.050856	 66.432845	 63.549839	 
1114.000000	 70.069043	 77.063201	 45.416741	 65.558369	 61.285012	 61.624876	 72.259200	 78.339846	 63.831721	 71.035147	 66.560621	 63.555235	 
1116.000000	 70.254717	 77.048777	 45.452342	 65.517635	 61.457198	 61.624576	 72.455108	 78.329318	 63.925563	 71.019643	 66.693526	 63.560849	 
1118.000000	 70.447619	 77.034788	 45.477900	 65.477296	 61.623757	 61.624574	 72.663505	 78.319201	 64.022676	 71.004359	 66.831403	 63.566689	 
1120.000000	 70.646882	 77.021241	 45.498023	 65.437334	 61.784289	 61.624859	 72.890461	 78.309504	 64.122703	 70.989304	 66.973845	 63.572762	 
1122.000000	 70.851471	 77.008138	 45.538343	 65.397713	 61.938265	 61.625417	 73.128239	 78.300236	 64.224541	 70.974466	 67.120249	 63.579075	 
1124.000000	 71.060399	 76.995483	 45.567953	 65.358406	 62.085791	 61.626235	 73.375622	 78.291397	 64.327431	 70.959836	 67.270507	 63.585631	 
1126.000000	 71.272688	 76.983273	 45.591637	 65.319383	 62.227157	 61.627300	 73.629966	 78.282981	 64.430555	 70.945402	 67.424615	 63.592438	 
1128.000000	 71.487208	 76.971501	 45.601131	 65.280625	 62.362504	 61.628601	 73.889421	 78.274982	 64.532274	 70.931154	 67.582377	 63.599500	 
1130.000000	 71.701828	 76.960162	 45.591909	 65.242129	 62.491660	 61.630126	 74.147848	 78.267389	 64.627417	 70.917078	 67.743275	 63.606821	 
1132.000000	 71.913483	 76.949248	 45.565919	 65.203872	 62.620320	 61.631872	 74.401390	 78.260191	 64.710993	 70.903213	 67.906751	 63.614405	 
1134.000000	 72.121596	 76.938753	 45.552226	 65.165816	 62.789986	 61.633911	 74.647909	 78.253373	 64.784017	 70.890537	 68.072681	 63.622254	 
1136.000000	 72.326000	 76.928671	 45.560082	 65.127924	 62.951916	 61.636228	 74.885937	 78.246922	 64.850392	 70.878077	 68.241002	 63.630371	 
1138.000000	 72.526588	 76.918997	 45.568881	 65.090163	 63.106355	 61.638807	 75.114340	 78.240821	 64.900501	 70.865803	 68.411713	 63.638759	 
1140.000000	 72.723387	 76.909725	 45.554070	 65.052500	 63.266856	 61.641658	 75.332204	 78.235056	 64.932434	 70.853687	 68.584903	 63.647422	 
1142.000000	 72.918209	 76.900853	 45.578422	 65.014935	 63.460511	 61.644838	 75.538797	 78.229611	 64.946089	 70.841692	 68.760755	 63.656361	 
1144.000000	 73.126979	 76.892378	 45.607039	 64.977566	 63.645586	 61.648330	 75.733595	 78.224472	 64.941714	 70.829784	 68.939597	 63.665581	 
1146.000000	 73.332007	 76.884297	 45.612296	 64.940522	 63.822755	 61.652118	 75.916019	 78.220230	 64.919974	 70.817923	 69.121966	 63.675087	 
1148.000000	 73.532988	 76.877146	 45.638725	 64.904553	 64.045218	 61.656280	 76.090016	 78.216516	 64.882006	 70.806078	 69.308731	 63.684885	 
1150.000000	 73.729110	 76.870435	 45.699022	 64.868844	 64.258771	 61.660798	 76.253266	 78.213084	 64.829363	 70.794215	 69.501060	 63.694982	 
1152.000000	 73.920134	 76.864120	 45.734726	 64.833412	 64.464007	 61.665656	 76.403555	 78.209911	 64.763345	 70.782306	 69.700124	 63.705390	 
1154.000000	 74.108109	 76.858184	 45.747836	 64.798222	 64.661070	 61.670839	 76.540140	 78.206974	 64.684213	 70.770322	 69.906782	 63.716119	 
1156.000000	 74.287510	 76.852607	 45.741696	 64.763233	 64.849648	 61.676329	 76.660038	 78.204244	 64.590254	 70.758234	 70.121628	 63.727182	 
1158.000000	 74.459442	 76.847367	 45.731377	 64.728448	 65.038266	 61.682125	 76.762966	 78.201691	 64.473057	 70.745995	 70.345591	 63.738593	 
1160.000000	 74.625224	 76.842443	 45.700463	 64.693805	 65.267952	 61.688297	 76.849184	 78.199284	 64.332295	 70.733556	 70.580334	 63.750369	 
1162.000000	 74.786317	 76.837816	 45.650064	 64.659320	 65.489219	 61.694828	 76.920074	 78.196995	 64.169138	 70.720862	 70.827781	 63.762529	 
1164.000000	 74.944331	 76.833466	 45.570577	 64.624946	 65.810025	 61.701865	 76.983727	 78.194795	 63.982718	 70.707859	 71.090003	 63.775098	 
1166.000000	 75.101256	 76.829377	 45.452374	 64.590610	 66.132565	 61.709428	 77.039195	 78.192660	 63.767420	 70.694489	 71.369130	 63.788101	 
1168.000000	 75.263761	 76.825534	 45.314313	 64.556228	 66.453767	 61.717511	 77.084004	 78.190566	 63.523646	 70.680699	 71.667410	 63.801570	 
1170.000000	 75.428016	 76.821920	 45.153067	 64.521729	 66.774286	 61.726112	 77.118839	 78.188491	 63.251385	 70.666440	 71.987219	 63.815539	 
1172.000000	 75.594375	 76.818526	 44.937949	 64.487023	 67.094744	 61.735227	 77.162052	 78.186423	 62.948813	 70.651666	 72.330929	 63.830046	 
1174.000000	 75.769372	 76.815346	 44.666745	 64.452049	 67.438833	 61.744927	 77.250903	 78.184356	 62.622925	 70.636330	 72.701079	 63.845132	 
1176.000000	 75.955417	 76.812385	 44.338151	 64.416733	 67.876057	 61.755337	 77.344424	 78.182294	 62.270124	 70.620384	 73.100434	 63.860846	 
1178.000000	 76.153015	 76.809653	 43.982847	 64.380996	 68.324177	 61.766470	 77.438884	 78.180249	 61.968799	 70.603784	 73.532074	 63.877238	 
1180.000000	 76.364500	 76.807169	 43.580084	 64.344743	 68.904555	 61.778548	 77.548275	 78.178240	 61.643070	 70.586491	 73.998961	 63.894364	 
1182.000000	 76.603834	 76.804951	 43.166864	 64.307958	 69.534351	 61.791649	 77.670111	 78.176289	 61.277006	 70.568472	 74.503529	 63.912285	 
1184.000000	 76.862747	 76.803016	 42.739851	 64.270662	 70.226733	 61.805874	 77.823215	 78.174417	 60.871494	 70.549700	 75.047580	 63.931063	 
1186.000000	 77.143313	 76.801387	 42.418757	 64.232750	 71.013703	 61.821375	 78.027940	 78.172651	 60.413626	 70.530143	 75.631957	 63.950762	 
1188.000000	 77.468198	 76.800087	 42.055687	 64.194126	 71.835727	 61.838206	 78.592665	 78.171022	 59.895573	 70.509775	 76.256740	 63.971444	 
1190.000000	 77.828189	 76.799144	 41.618712	 64.154738	 72.664854	 61.856372	 79.197684	 78.169560	 59.317658	 70.488585	 76.920638	 63.993171	 
1192.000000	 78.240149	 76.798584	 41.137459	 64.114558	 73.497100	 61.875870	 79.830535	 78.168300	 58.681559	 70.466565	 77.620773	 64.015998	 
1194.000000	 78.706611	 76.798433	 40.567679	 64.073720	 74.327682	 61.896693	 80.489538	 78.167275	 57.989978	 70.443712	 78.352745	 64.039972	 
1196.000000	 79.221185	 76.798714	 39.924984	 64.032263	 75.152105	 61.918822	 81.173501	 78.166515	 57.250605	 70.420028	 79.112082	 64.065134	 
1198.000000	 79.776551	 76.799447	 39.207847	 63.990216	 75.966189	 61.942234	 81.882033	 78.166051	 56.574006	 70.395511	 79.894618	 64.091517	 
1200.000000	 80.371343	 76.800656	 38.602102	 63.947669	 76.765369	 61.966898	 82.614800	 78.165912	 55.948040	 70.370158	 80.696179	 64.119145	 
1202.000000	 80.989255	 76.802365	 38.177837	 63.904524	 77.545422	 61.992776	 83.369913	 78.166129	 55.324044	 70.343964	 81.513224	 64.148039	 
1204.000000	 81.624347	 76.804599	 37.691058	 63.860687	 78.301594	 62.019822	 84.145025	 78.166733	 54.696172	 70.316935	 82.341712	 64.178211	 
1206.000000	 82.272845	 76.807379	 37.127951	 63.816047	 79.027190	 62.047980	 84.935076	 78.167750	 54.069360	 70.289094	 83.175457	 64.209663	 
1208.000000	 82.921050	 76.810710	 36.489699	 63.770509	 79.712562	 62.077178	 85.731484	 78.169189	 53.448915	 70.260468	 84.004729	 64.242382	 
1210.000000	 83.570759	 76.814586	 35.775131	 63.724088	 80.360082	 62.107330	 86.522940	 78.171050	 52.833516	 70.231082	 84.819253	 64.276338	 
1212.000000	 84.214056	 76.818988	 35.054400	 63.676759	 81.029525	 62.138471	 87.300250	 78.173321	 52.251404	 70.200966	 85.610585	 64.311485	 
1214.000000	 84.894973	 76.823884	 34.362503	 63.628455	 81.835155	 62.170867	 88.054911	 78.175984	 51.700303	 70.170145	 86.371740	 64.347768	 
1216.000000	 85.552013	 76.829231	 33.733339	 63.579305	 82.641372	 62.204480	 88.780390	 78.179006	 51.162106	 70.138627	 87.098622	 64.385126	 
1218.000000	 86.209341	 76.834973	 33.265054	 63.529399	 83.392228	 62.239214	 89.472683	 78.182342	 50.675886	 70.106396	 87.790345	 64.423494	 
1220.000000	 86.903097	 76.841044	 32.727338	 63.478755	 84.090559	 62.274977	 90.131680	 78.185928	 50.238385	 70.073418	 88.449377	 64.462815	 
1222.000000	 87.560503	 76.847370	 32.114689	 63.427302	 84.741535	 62.311687	 90.760851	 78.189689	 49.753294	 70.039628	 89.081949	 64.503040	 
1224.000000	 88.189142	 76.853881	 31.451157	 63.374914	 85.352205	 62.349274	 91.366742	 78.193548	 49.201810	 70.004936	 89.696820	 64.544138	 
1226.000000	 88.800954	 76.860518	 30.731012	 63.321480	 85.930462	 62.387679	 91.957978	 78.197437	 48.582070	 69.969243	 90.304056	 64.586090	 
1228.000000	 89.411742	 76.867234	 29.973585	 63.266870	 86.483850	 62.426860	 92.543505	 78.201301	 47.886338	 69.932433	 90.913386	 64.628897	 
1230.000000	 90.042654	 76.873999	 29.146179	 63.211040	 87.018304	 62.466781	 93.131130	 78.205092	 47.103168	 69.894390	 91.532822	 64.672570	 
1232.000000	 90.717786	 76.880794	 28.267097	 63.153897	 87.640402	 62.507567	 93.727018	 78.208777	 46.235232	 69.855004	 92.168298	 64.717132	 
1234.000000	 91.445057	 76.887615	 27.330414	 63.095337	 88.517963	 62.549655	 94.335265	 78.212333	 45.286916	 69.814178	 92.823313	 64.762610	 
1236.000000	 92.214262	 76.894464	 26.405522	 63.035264	 89.404311	 62.593039	 94.957424	 78.215745	 44.265272	 69.771824	 93.498526	 64.809032	 
1238.000000	 93.012692	 76.901346	 25.452015	 62.973668	 90.281737	 62.637698	 95.591406	 78.219001	 43.179840	 69.727870	 94.190800	 64.856421	 
1240.000000	 93.827649	 76.908368	 24.500751	 62.910507	 91.283058	 62.683826	 96.231486	 78.222087	 42.041744	 69.682255	 94.893335	 64.904788	 
1242.000000	 94.645610	 76.915476	 23.484645	 62.845809	 92.322155	 62.731476	 96.869566	 78.224986	 40.875458	 69.634924	 95.597163	 64.954132	 
1244.000000	 95.453994	 76.922589	 22.451232	 62.779728	 93.333581	 62.780596	 97.497334	 78.227676	 39.670356	 69.585818	 96.293151	 65.004435	 
1246.000000	 96.243772	 76.929686	 21.379722	 62.712294	 94.312704	 62.831129	 98.108470	 78.230124	 38.423873	 69.534864	 96.974052	 65.055667	 
1248.000000	 97.011162	 76.936740	 20.314220	 62.643537	 95.258866	 62.883013	 98.700332	 78.232298	 37.127263	 69.481971	 97.636498	 65.107796	 
1250.000000	 97.757946	 76.943721	 19.344319	 62.573473	 96.175832	 62.936196	 99.275013	 78.234166	 35.794210	 69.427030	 98.282317	 65.160790	 
1252.000000	 98.490156	 76.950607	 18.476742	 62.502128	 97.070613	 62.990637	 99.838877	 78.235705	 34.393578	 69.369917	 98.917856	 65.214629	 
1254.000000	 99.216127	 76.957391	 17.570917	 62.429497	 97.951790	 63.046308	 100.401001	 78.236909	 32.923415	 69.310501	 99.552218	 65.269306	 
1256.000000	 99.944156	 76.964081	 16.627169	 62.355528	 98.827439	 63.103194	 100.970983	 78.237792	 31.387412	 69.248652	 100.194927	 65.324831	 
1258.000000	 100.678942	 76.970701	 15.713489	 62.280279	 99.701752	 63.161287	 101.555396	 78.238387	 29.768032	 69.184256	 100.852308	 65.381224	 
1260.000000	 101.418220	 76.977284	 14.782289	 62.203789	 100.571796	 63.220574	 102.154267	 78.238740	 28.104154	 69.117229	 101.523923	 65.438502	 
1262.000000	 102.154899	 76.983866	 13.825324	 62.126193	 101.430028	 63.281032	 102.762221	 78.238905	 26.369990	 69.047522	 102.203824	 65.496675	 
1264.000000	 102.881712	 76.990485	 12.845036	 62.047617	 102.268603	 63.342624	 103.372659	 78.238940	 24.623048	 68.975115	 102.884458	 65.555739	 
1266.000000	 103.590807	 76.998302	 12.206760	 61.968191	 103.078787	 63.405299	 103.977988	 78.238900	 22.818799	 68.900023	 103.556822	 65.615678	 
1268.000000	 104.273614	 77.007430	 11.744565	 61.888109	 103.851494	 63.468994	 104.570065	 78.239928	 20.999673	 68.822295	 104.211635	 65.676458	 
1270.000000	 104.918777	 77.016717	 11.274296	 61.807408	 104.575330	 63.533626	 105.138743	 78.242509	 19.172225	 68.742036	 104.838115	 65.738033	 
1272.000000	 105.514233	 77.026176	 10.788464	 61.726126	 105.238421	 63.599097	 105.672981	 78.245186	 17.350537	 68.659419	 105.424715	 65.800335	 
1274.000000	 106.054850	 77.035808	 10.295339	 61.644324	 105.836183	 63.665299	 106.166797	 78.247976	 15.602316	 68.574672	 105.965023	 65.863289	 
1276.000000	 106.538684	 77.045608	 9.802951	 61.562031	 106.367165	 63.732125	 106.616488	 78.250887	 13.911458	 68.488062	 106.454835	 65.926813	 
1278.000000	 106.966506	 77.055559	 9.318239	 61.479319	 106.832662	 63.799469	 107.020454	 78.253916	 12.357665	 68.399876	 106.892119	 65.990821	 
1280.000000	 107.341644	 77.065637	 8.846713	 61.396205	 107.236799	 63.867234	 107.379439	 78.257048	 11.541583	 68.310396	 107.277561	 66.055230	 
1282.000000	 107.669569	 77.075815	 8.392325	 61.312712	 107.586311	 63.935332	 107.696536	 78.260264	 10.836130	 68.219879	 107.614853	 66.119965	 
1284.000000	 107.957249	 77.086063	 7.957523	 61.228865	 107.889683	 64.003690	 107.976875	 78.263545	 10.212625	 68.128545	 107.910148	 66.184957	 
1286.000000	 108.211693	 77.096357	 7.543459	 61.144693	 108.155465	 64.072248	 108.226192	 78.266872	 9.652308	 68.036565	 108.170424	 66.250151	 
1288.000000	 108.439077	 77.106677	 7.150297	 61.060226	 108.391189	 64.140959	 108.449864	 78.270229	 9.136086	 67.944070	 108.402240	 66.315503	 
1290.000000	 108.644458	 77.117007	 6.777544	 60.975492	 108.602964	 64.209785	 108.652468	 78.273604	 8.654619	 67.851151	 108.611131	 66.380976	 
1292.000000	 108.831277	 77.127334	 6.424342	 60.890517	 108.794954	 64.278696	 108.837163	 78.276987	 8.203254	 67.757877	 108.800937	 66.446540	 
1294.000000	 109.001497	 77.137649	 6.089681	 60.805330	 108.969558	 64.347663	 109.005746	 78.280370	 7.776634	 67.664295	 108.973867	 66.512168	 
1296.000000	 109.156159	 77.147942	 5.772534	 60.719953	 109.128048	 64.416661	 109.159153	 78.283744	 7.370895	 67.570442	 109.131078	 66.577836	 
1298.000000	 109.295786	 77.158202	 5.471918	 60.634411	 109.271053	 64.485668	 109.297835	 78.287102	 6.983932	 67.476345	 109.273123	 66.643521	 
1300.000000	 109.420672	 77.168422	 5.186925	 60.548726	 109.398922	 64.554659	 109.422030	 78.290436	 6.614429	 67.382031	 109.400290	 66.709199	 
1302.000000	 109.531190	 77.178591	 4.916718	 60.462918	 109.512061	 64.623611	 109.532064	 78.293738	 6.261619	 67.287521	 109.512938	 66.774849	 
1304.000000	 109.628017	 77.188701	 4.660525	 60.377008	 109.611185	 64.692505	 109.628567	 78.297000	 5.925087	 67.192837	 109.611734	 66.840448	 
1306.000000	 109.712106	 77.198745	 4.417624	 60.291014	 109.697288	 64.761319	 109.712453	 78.300216	 5.604604	 67.098001	 109.697632	 66.905979	 
1308.000000	 109.784670	 77.208715	 4.187336	 60.204955	 109.771629	 64.830037	 109.784901	 78.303380	 5.299983	 67.003033	 109.771855	 66.971422	 
1310.000000	 109.847084	 77.218607	 3.969018	 60.118848	 109.835618	 64.898642	 109.847258	 78.306489	 5.010972	 66.907955	 109.835786	 67.036764	 
1312.000000	 109.900739	 77.228417	 3.762057	 60.032708	 109.890677	 64.967123	 109.900894	 78.309538	 4.737197	 66.812787	 109.890826	 67.101991	 
1314.000000	 109.946950	 77.238143	 3.565869	 59.946550	 109.938140	 65.035468	 109.947109	 78.312526	 4.478139	 66.717549	 109.938294	 67.167091	 
1316.000000	 109.986871	 77.247783	 3.379896	 59.860391	 109.979179	 65.103667	 109.987048	 78.315453	 4.233155	 66.622261	 109.979350	 67.232056	 
1318.000000	 110.021466	 77.257337	 3.203611	 59.774242	 110.014766	 65.171714	 110.021667	 78.318319	 4.001516	 66.526940	 110.014963	 67.296878	 
1320.000000	 110.051507	 77.266806	 3.036508	 59.688117	 110.045686	 65.239601	 110.051735	 78.321123	 3.782456	 66.431605	 110.045910	 67.361551	 
1322.000000	 110.077602	 77.276190	 2.878111	 59.602028	 110.072556	 65.307325	 110.077856	 78.323868	 3.575212	 66.336272	 110.072807	 67.426069	 
1324.000000	 110.100235	 77.285490	 2.727968	 59.515986	 110.095869	 65.374878	 110.100513	 78.326555	 3.379056	 66.240956	 110.096144	 67.490428	 
1326.000000	 110.119807	 77.294708	 2.585648	 59.430003	 110.116036	 65.442259	 110.120104	 78.329186	 3.193313	 66.145671	 110.116331	 67.554623	 
1328.000000	 110.136673	 77.303845	 2.450747	 59.344088	 110.133422	 65.509464	 110.136985	 78.331762	 3.017366	 66.050432	 110.133732	 67.618652	 
1330.000000	 110.151164	 77.312903	 2.322878	 59.258250	 110.148366	 65.576489	 110.151486	 78.334285	 2.850661	 65.955249	 110.148687	 67.682510	 
1332.000000	 110.163599	 77.321885	 2.201676	 59.172500	 110.161196	 65.643332	 110.163926	 78.336759	 2.692698	 65.860134	 110.161522	 67.746196	 
1334.000000	 110.174287	 77.330793	 2.086797	 59.086845	 110.172228	 65.709992	 110.174615	 78.339184	 2.543025	 65.765100	 110.172554	 67.809709	 
1336.000000	 110.183526	 77.339628	 1.977910	 59.001293	 110.181765	 65.776466	 110.183850	 78.341564	 2.401493	 65.670154	 110.182088	 67.873045	 
1338.000000	 110.191593	 77.348395	 1.874706	 58.915852	 110.190090	 65.842755	 110.191910	 78.343901	 2.267567	 65.575308	 110.190407	 67.936205	 
1340.000000	 110.198740	 77.357095	 1.776889	 58.830529	 110.197461	 65.908857	 110.199048	 78.346198	 2.140745	 65.480571	 110.197769	 67.999187	 
1342.000000	 110.205192	 77.365732	 1.684177	 58.745330	 110.204106	 65.974772	 110.205488	 78.349982	 2.020700	 65.385950	 110.204403	 68.061992	 
1344.000000	 110.211141	 77.374308	 1.596307	 58.660262	 110.210222	 66.040500	 110.211425	 78.354688	 1.907122	 65.291455	 110.210505	 68.124620	 
1346.000000	 110.216751	 77.382826	 1.513025	 58.575330	 110.215975	 66.106042	 110.217021	 78.359352	 1.799714	 65.197092	 110.216245	 68.187070	 
1348.000000	 110.222160	 77.392395	 1.434092	 58.490540	 110.221507	 66.171398	 110.222415	 78.363976	 1.698189	 65.102869	 110.221762	 68.249343	 
1350.000000	 110.227482	 77.403127	 1.359282	 58.405897	 110.226934	 66.236569	 110.227723	 78.368564	 1.602272	 65.008794	 110.227175	 68.311440	 
1352.000000	 110.232813	 77.413800	 1.288379	 58.321406	 110.232355	 66.301555	 110.233040	 78.373119	 1.511691	 64.914872	 110.232581	 68.373362	 
1354.000000	 110.238236	 77.424417	 1.221180	 58.237071	 110.237853	 66.366357	 110.238448	 78.377644	 1.426185	 64.821110	 110.238065	 68.435109	 
1356.000000	 110.243819	 77.434982	 1.157492	 58.152896	 110.243501	 66.430977	 110.244017	 78.382141	 1.345500	 64.727513	 110.243699	 68.496682	 
1358.000000	 110.249622	 77.445496	 1.097130	 58.068885	 110.249358	 66.495415	 110.249806	 78.386613	 1.269390	 64.634088	 110.249542	 68.558083	 
1360.000000	 110.255696	 77.455963	 1.039923	 57.985042	 110.255478	 66.559673	 110.255868	 78.391064	 1.197617	 64.540838	 110.255650	 68.619312	 
1362.000000	 110.262087	 77.466387	 0.985704	 57.901370	 110.261908	 66.623753	 110.262246	 78.395496	 1.129953	 64.447770	 110.262067	 68.680372	 
1364.000000	 110.268831	 77.476769	 0.934318	 57.817873	 110.268683	 66.687654	 110.268979	 78.399912	 1.066178	 64.354886	 110.268830	 68.741262	 
1366.000000	 110.275958	 77.487112	 0.885617	 57.734553	 110.275836	 66.751379	 110.276095	 78.404314	 1.006082	 64.262192	 110.275973	 68.801985	 
1368.000000	 110.283492	 77.497420	 0.839460	 57.651413	 110.283392	 66.814929	 110.283619	 78.408704	 0.949464	 64.169692	 110.283518	 68.862542	 
1370.000000	 110.291451	 77.507695	 0.795715	 57.568455	 110.291369	 66.878305	 110.291568	 78.413086	 0.896133	 64.077388	 110.291485	 68.922934	 
1372.000000	 110.299847	 77.517939	 0.754255	 57.485683	 110.299778	 66.941510	 110.299955	 78.417462	 0.845906	 63.985284	 110.299886	 68.983162	 
1374.000000	 110.308687	 77.528155	 0.714962	 57.403097	 110.308630	 67.004543	 110.308786	 78.421834	 0.798610	 63.893384	 110.308729	 69.043228	 
1376.000000	 110.317974	 77.538345	 0.677722	 57.320700	 110.317925	 67.067407	 110.318065	 78.426204	 0.754081	 63.801689	 110.318017	 69.103133	 
1378.000000	 110.327706	 77.548511	 0.642427	 57.238494	 110.327664	 67.130102	 110.327791	 78.430575	 0.712161	 63.710203	 110.327749	 69.162878	 
1380.000000	 110.337879	 77.558656	 0.608977	 57.156481	 110.337843	 67.192631	 110.337958	 78.434947	 0.672704	 63.618928	 110.337921	 69.222465	 
1382.000000	 110.348487	 77.568783	 0.577274	 57.074661	 110.348455	 67.254995	 110.348560	 78.439325	 0.635568	 63.527867	 110.348527	 69.281896	 
1384.000000	 110.359521	 77.578892	 0.547227	 56.993037	 110.359491	 67.317194	 110.359588	 78.443708	 0.600710	 63.437020	 110.359558	 69.341170	 
1386.000000	 110.370968	 77.588986	 0.518750	 56.911610	 110.370940	 67.379231	 110.371031	 78.448099	 0.567927	 63.346391	 110.371003	 69.400291	 
1388.000000	 110.382818	 77.599068	 0.491760	 56.830381	 110.382791	 67.441106	 110.382876	 78.452500	 0.537074	 63.255980	 110.382849	 69.459258	 
1390.000000	 110.395055	 77.609137	 0.466180	 56.749350	 110.395029	 67.502821	 110.395109	 78.456912	 0.508041	 63.165790	 110.395083	 69.518074	 
1392.000000	 110.407666	 77.619198	 0.441936	 56.668520	 110.407640	 67.564377	 110.407716	 78.461337	 0.480719	 63.075821	 110.407690	 69.576739	 
1394.000000	 110.420634	 77.629250	 0.418959	 56.587890	 110.420608	 67.625776	 110.420680	 78.465776	 0.455008	 62.986075	 110.420655	 69.635254	 
1396.000000	 110.433942	 77.639296	 0.397181	 56.507462	 110.433916	 67.687017	 110.433986	 78.470231	 0.430813	 62.896553	 110.433960	 69.693621	 
1398.000000	 110.447573	 77.649337	 0.376541	 56.427235	 110.447547	 67.748104	 110.447614	 78.474703	 0.408043	 62.807255	 110.447588	 69.751840	 
1400.000000	 110.461510	 77.659375	 0.356978	 56.347212	 110.461483	 67.809035	 110.461548	 78.479192	 0.386612	 62.718183	 110.461522	 69.809914	 
1402.000000	 110.475733	 77.669410	 0.338437	 56.267392	 110.475706	 67.869814	 110.475770	 78.483701	 0.366439	 62.629338	 110.475743	 69.867842	 
1404.000000	 110.490226	 77.679445	 0.320864	 56.187775	 110.490198	 67.930440	 110.490260	 78.488230	 0.347449	 62.540720	 110.490233	 69.925626	 
1406.000000	 110.504969	 77.689480	 0.304208	 56.108362	 110.504941	 67.990915	 110.505001	 78.492780	 0.329568	 62.452329	 110.504973	 69.983267	 
1408.000000	 110.519944	 77.699517	 0.288422	 56.029154	 110.519915	 68.051239	 110.519974	 78.497353	 0.312728	 62.364166	 110.519946	 70.040765	 
1410.000000	 110.535131	 77.709556	 0.273460	 55.950150	 110.535102	 68.111414	 110.535161	 78.501948	 0.296865	 62.276232	 110.535132	 70.098123	 
1412.000000	 110.550514	 77.719599	 0.259278	 55.871351	 110.550485	 68.171441	 110.550542	 78.506567	 0.281918	 62.188526	 110.550513	 70.155339	 
1414.000000	 110.566074	 77.729646	 0.245837	 55.792757	 110.566044	 68.231320	 110.566100	 78.511211	 0.267830	 62.101049	 110.566071	 70.212416	 
1416.000000	 110.581792	 77.739699	 0.233097	 55.714367	 110.581763	 68.291052	 110.581818	 78.516547	 0.254548	 62.013801	 110.581788	 70.269354	 
1418.000000	 110.597652	 77.749757	 0.221021	 55.636183	 110.597623	 68.350639	 110.597677	 78.523410	 0.242021	 61.926781	 110.597647	 70.326155	 
1420.000000	 110.613637	 77.759823	 0.209576	 55.558203	 110.613607	 68.410080	 110.613660	 78.530291	 0.230202	 61.839991	 110.613630	 70.382817	 
1422.000000	 110.629728	 77.769896	 0.198728	 55.480428	 110.629699	 68.469377	 110.629751	 78.537190	 0.219046	 61.753429	 110.629721	 70.439344	 
1424.000000	 110.645911	 77.779977	 0.188445	 55.402858	 110.645881	 68.528530	 110.645933	 78.544108	 0.208530	 61.667097	 110.645904	 70.495734	 
1426.000000	 110.662168	 77.790067	 0.178699	 55.325493	 110.662139	 68.587541	 110.662190	 78.551047	 0.198620	 61.580992	 110.662161	 70.551989	 
1428.000000	 110.678485	 77.800166	 0.169461	 55.248331	 110.678457	 68.646409	 110.678506	 78.558005	 0.189252	 61.495116	 110.678477	 70.608110	 
1430.000000	 110.694847	 77.810275	 0.160704	 55.171374	 110.694818	 68.705136	 110.694867	 78.564983	 0.180393	 61.409468	 110.694839	 70.664097	 
1432.000000	 110.711237	 77.821923	 0.152404	 55.094621	 110.711210	 68.763721	 110.711257	 78.571983	 0.172011	 61.324048	 110.711230	 70.719950	 
1434.000000	 110.727644	 77.834052	 0.144537	 55.018071	 110.727617	 68.822166	 110.727663	 78.579003	 0.164963	 61.238856	 110.727636	 70.775671	 
1436.000000	 110.744052	 77.846185	 0.140317	 54.941724	 110.744026	 68.880472	 110.744071	 78.586045	 0.160001	 61.153890	 110.744045	 70.831260	 
1438.000000	 110.760449	 77.858321	 0.136342	 54.865581	 110.760424	 68.938638	 110.760468	 78.593108	 0.155103	 61.069151	 110.760442	 70.886717	 
1440.000000	 110.776822	 77.870461	 0.132427	 54.789639	 110.776797	 68.996666	 110.776841	 78.600193	 0.150274	 60.984637	 110.776816	 70.942042	 
1442.000000	 110.793159	 77.882605	 0.128538	 54.713900	 110.793135	 69.054556	 110.793177	 78.607299	 0.145514	 60.900350	 110.793153	 70.997238	 
1444.000000	 110.809448	 77.894754	 0.124678	 54.638363	 110.809425	 69.112308	 110.809466	 78.614427	 0.140954	 60.816288	 110.809442	 71.052303	 
1446.000000	 110.825678	 77.906907	 0.120908	 54.563027	 110.825656	 69.169922	 110.825696	 78.621576	 0.136584	 60.732450	 110.825673	 71.107238	 
1448.000000	 110.841839	 77.919066	 0.117179	 54.487892	 110.841817	 69.227401	 110.841856	 78.628748	 0.132275	 60.648836	 110.841834	 71.162044	 
1450.000000	 110.857919	 77.931229	 0.113491	 54.412958	 110.857898	 69.284743	 110.857936	 78.635941	 0.128032	 60.565446	 110.857915	 71.216721	 
1452.000000	 110.873910	 77.943398	 0.109848	 54.338223	 110.873889	 69.341949	 110.873926	 78.643155	 0.123857	 60.482279	 110.873906	 71.271270	 
1454.000000	 110.889801	 77.955572	 0.106253	 54.263688	 110.889782	 69.399020	 110.889818	 78.650391	 0.119751	 60.399335	 110.889798	 71.325691	 
1456.000000	 110.905585	 77.967751	 0.102711	 54.189351	 110.905566	 69.455956	 110.905601	 78.657649	 0.115718	 60.316611	 110.905583	 71.379984	 
1458.000000	 110.921252	 77.979935	 0.099223	 54.115213	 110.921234	 69.512758	 110.921269	 78.664927	 0.111759	 60.234109	 110.921251	 71.434150	 
1460.000000	 110.936796	 77.992125	 0.095793	 54.041273	 110.936778	 69.569425	 110.936812	 78.672227	 0.107876	 60.151828	 110.936795	 71.488189	 
1462.000000	 110.952207	 78.004320	 0.092424	 53.967530	 110.952191	 69.625959	 110.952223	 78.679547	 0.104070	 60.069766	 110.952207	 71.542101	 
1464.000000	 110.967480	 78.016520	 0.089139	 53.893984	 110.967464	 69.682359	 110.967496	 78.686888	 0.100343	 59.987923	 110.967480	 71.595888	 
1466.000000	 110.982607	 78.028726	 0.085989	 53.820634	 110.982592	 69.738626	 110.982623	 78.694249	 0.096757	 59.906299	 110.982608	 71.649548	 
1468.000000	 110.997583	 78.040936	 0.083012	 53.747481	 110.997569	 69.794760	 110.997599	 78.701629	 0.093279	 59.824893	 110.997585	 71.703082	 
1470.000000	 111.012401	 78.053151	 0.080090	 53.674522	 111.012388	 69.850762	 111.012417	 78.709030	 0.089879	 59.743703	 111.012403	 71.756491	 
1472.000000	 111.027056	 78.065371	 0.077226	 53.601759	 111.027043	 69.906632	 111.027072	 78.716450	 0.086683	 59.662730	 111.027059	 71.809776	 
1474.000000	 111.041543	 78.077596	 0.074421	 53.529191	 111.041530	 69.962370	 111.041558	 78.723889	 0.083596	 59.581973	 111.041546	 71.862935	 
1476.000000	 111.055856	 78.089825	 0.072290	 53.456817	 111.055845	 70.017977	 111.055872	 78.731346	 0.080581	 59.501431	 111.055860	 71.915970	 
1478.000000	 111.069993	 78.102058	 0.071270	 53.384636	 111.069982	 70.073452	 111.070008	 78.738822	 0.079379	 59.421103	 111.069997	 71.968880	 
1480.000000	 111.083947	 78.114295	 0.070264	 53.312648	 111.083937	 70.128797	 111.083963	 78.746316	 0.078251	 59.340988	 111.083952	 72.021667	 
1482.000000	 111.097717	 78.126535	 0.069273	 53.240853	 111.097707	 70.184011	 111.097732	 78.753827	 0.077139	 59.261086	 111.097722	 72.074330	 
1484.000000	 111.111297	 78.138779	 0.068295	 53.169248	 111.111288	 70.239095	 111.111312	 78.761355	 0.076247	 59.181397	 111.111303	 72.126870	 
1486.000000	 111.124686	 78.151026	 0.067331	 53.097834	 111.124677	 70.294048	 111.124701	 78.768899	 0.075448	 59.101918	 111.124692	 72.179286	 
1488.000000	 111.137880	 78.163276	 0.066380	 53.026610	 111.137872	 70.348872	 111.137895	 78.776460	 0.074656	 59.022651	 111.137887	 72.231579	 
1490.000000	 111.150877	 78.175529	 0.065548	 52.955576	 111.150869	 70.403566	 111.150892	 78.784037	 0.073868	 58.943593	 111.150884	 72.283750	 
1492.000000	 111.163675	 78.187784	 0.064863	 52.884730	 111.163667	 70.458131	 111.163689	 78.792870	 0.073086	 58.864745	 111.163682	 72.335797	 
1494.000000	 111.176271	 78.200040	 0.064181	 52.814072	 111.176264	 70.512567	 111.176285	 78.802430	 0.072308	 58.786104	 111.176278	 72.387723	 
1496.000000	 111.188663	 78.212299	 0.063502	 52.743601	 111.188657	 70.566874	 111.188678	 78.811999	 0.071536	 58.707672	 111.188671	 72.439527	 
1498.000000	 111.200851	 78.224558	 0.062826	 52.673317	 111.200845	 70.621052	 111.200866	 78.821577	 0.070769	 58.629447	 111.200860	 72.491208	 
1500.000000	 111.212834	 78.236819	 0.062152	 52.603218	 111.212828	 70.675102	 111.212848	 78.831164	 0.070006	 58.551427	 111.212842	 72.542768	 
1502.000000	 111.224609	 78.249080	 0.061483	 52.533305	 111.224603	 70.729024	 111.224623	 78.840758	 0.069249	 58.473614	 111.224618	 72.594207	 
1504.000000	 111.236176	 78.261341	 0.060816	 52.463576	 111.236171	 70.782819	 111.236190	 78.850359	 0.068496	 58.396005	 111.236185	 72.645524	 
1506.000000	 111.247535	 78.273602	 0.060153	 52.394031	 111.247530	 70.836485	 111.247549	 78.859967	 0.067748	 58.318600	 111.247544	 72.696720	 
1508.000000	 111.258685	 78.285862	 0.059493	 52.324668	 111.258681	 70.890024	 111.258699	 78.869582	 0.067005	 58.241398	 111.258695	 72.747795	 
1510.000000	 111.269626	 78.298122	 0.058837	 52.255488	 111.269622	 70.943436	 111.269640	 78.879203	 0.066267	 58.164399	 111.269636	 72.798750	 
1512.000000	 111.280359	 78.310380	 0.058185	 52.186490	 111.280355	 70.996721	 111.280373	 78.888829	 0.065533	 58.087602	 111.280369	 72.849584	 
1514.000000	 111.290883	 78.322636	 0.057539	 52.117673	 111.290879	 71.049880	 111.290896	 78.898460	 0.064804	 58.011006	 111.290893	 72.900298	 
1516.000000	 111.301198	 78.334890	 0.056899	 52.049036	 111.301195	 71.102912	 111.301212	 78.908096	 0.064080	 57.934610	 111.301208	 72.950892	 
1518.000000	 111.311306	 78.348826	 0.056263	 51.980578	 111.311303	 71.155817	 111.311319	 78.917736	 0.063361	 57.858414	 111.311316	 73.001366	 
1520.000000	 111.321206	 78.362863	 0.055632	 51.912300	 111.321203	 71.208597	 111.321219	 78.927380	 0.062647	 57.782417	 111.321217	 73.051720	 
1522.000000	 111.330900	 78.376893	 0.055009	 51.844200	 111.330898	 71.261251	 111.330913	 78.937027	 0.061938	 57.706618	 111.330911	 73.101955	 
1524.000000	 111.340389	 78.390915	 0.054390	 51.776277	 111.340387	 71.313779	 111.340402	 78.946677	 0.061234	 57.631016	 111.340400	 73.152071	 
1526.000000	 111.349674	 78.404927	 0.053775	 51.708531	 111.349672	 71.366182	 111.349687	 78.956328	 0.060535	 57.555612	 111.349685	 73.202068	 
1528.000000	 111.358756	 78.418931	 0.053164	 51.640962	 111.358754	 71.418459	 111.358769	 78.965982	 0.059840	 57.480403	 111.358767	 73.251946	 
1530.000000	 111.367637	 78.432925	 0.052557	 51.573568	 111.367635	 71.470612	 111.367649	 78.975637	 0.059151	 57.405389	 111.367647	 73.301705	 
1532.000000	 111.376317	 78.446909	 0.051954	 51.506349	 111.376315	 71.522640	 111.376329	 78.985293	 0.058467	 57.330570	 111.376328	 73.351346	 
1534.000000	 111.384799	 78.460883	 0.051355	 51.439304	 111.384797	 71.574544	 111.384811	 78.994949	 0.057788	 57.255945	 111.384810	 73.400868	 
1536.000000	 111.393085	 78.474847	 0.050760	 51.372433	 111.393083	 71.626324	 111.393097	 79.004605	 0.057113	 57.181513	 111.393095	 73.450273	 
1538.000000	 111.401175	 78.488799	 0.050169	 51.305735	 111.401174	 71.677979	 111.401187	 79.014260	 0.056445	 57.107273	 111.401186	 73.499560	 
1540.000000	 111.409073	 78.502740	 0.049583	 51.239210	 111.409071	 71.729511	 111.409085	 79.023915	 0.055781	 57.033226	 111.409083	 73.548729	 
1542.000000	 111.416779	 78.516670	 0.049001	 51.172856	 111.416778	 71.780919	 111.416791	 79.033567	 0.055122	 56.959369	 111.416790	 73.597781	 
1544.000000	 111.424297	 78.530588	 0.048424	 51.106673	 111.424296	 71.832204	 111.424309	 79.043218	 0.054469	 56.885702	 111.424308	 73.646715	 
1546.000000	 111.431629	 78.544493	 0.047851	 51.040660	 111.431628	 71.883366	 111.431640	 79.052867	 0.053821	 56.812225	 111.431639	 73.695533	 
1548.000000	 111.438776	 78.558385	 0.047284	 50.974817	 111.438775	 71.934405	 111.438787	 79.062512	 0.053178	 56.738937	 111.438786	 73.744234	 
1550.000000	 111.445741	 78.572265	 0.046722	 50.909143	 111.445740	 71.985322	 111.445752	 79.072154	 0.052540	 56.665837	 111.445751	 73.792818	 
1552.000000	 111.452526	 78.586131	 0.046165	 50.843638	 111.452525	 72.036116	 111.452537	 79.081792	 0.051908	 56.592924	 111.452536	 73.841286	 
1554.000000	 111.459134	 78.599983	 0.045612	 50.778301	 111.459133	 72.086788	 111.459145	 79.091426	 0.051281	 56.520199	 111.459144	 73.889638	 
1556.000000	 111.465567	 78.613821	 0.045063	 50.713131	 111.465566	 72.137338	 111.465578	 79.101055	 0.050659	 56.447659	 111.465577	 73.937874	 
1558.000000	 111.471828	 78.627645	 0.044518	 50.648127	 111.471828	 72.187767	 111.471839	 79.110679	 0.050043	 56.375305	 111.471838	 73.985994	 
1560.000000	 111.477920	 78.641454	 0.043979	 50.583290	 111.477919	 72.238074	 111.477930	 79.120298	 0.049432	 56.303135	 111.477930	 74.033999	 
1562.000000	 111.483845	 78.655247	 0.043444	 50.518617	 111.483844	 72.288261	 111.483855	 79.129910	 0.048827	 56.231150	 111.483854	 74.081889	 
1564.000000	 111.489605	 78.669025	 0.042913	 50.454110	 111.489605	 72.338326	 111.489615	 79.139516	 0.048227	 56.159348	 111.489615	 74.129664	 
1566.000000	 111.495204	 78.682788	 0.042387	 50.389767	 111.495204	 72.388271	 111.495214	 79.150346	 0.047632	 56.087728	 111.495214	 74.177324	 
1568.000000	 111.500645	 78.696534	 0.041866	 50.325587	 111.500644	 72.438095	 111.500654	 79.161750	 0.047043	 56.016291	 111.500654	 74.224869	 
1570.000000	 111.505929	 78.710263	 0.041349	 50.261570	 111.505929	 72.487800	 111.505939	 79.173143	 0.046459	 55.945035	 111.505938	 74.272300	 
1572.000000	 111.511061	 78.723976	 0.040837	 50.197715	 111.511060	 72.537385	 111.511070	 79.184524	 0.045881	 55.873959	 111.511070	 74.319618	 
1574.000000	 111.516042	 78.737671	 0.040329	 50.134022	 111.516041	 72.586850	 111.516051	 79.195893	 0.045308	 55.803064	 111.516051	 74.366821	 
1576.000000	 111.520875	 78.751350	 0.039827	 50.070491	 111.520875	 72.636196	 111.520884	 79.207250	 0.044740	 55.732347	 111.520884	 74.413911	 
1578.000000	 111.525565	 78.765010	 0.039329	 50.007119	 111.525565	 72.685423	 111.525574	 79.218593	 0.044178	 55.661810	 111.525573	 74.460888	 
1580.000000	 111.530112	 78.778652	 0.038835	 49.943908	 111.530112	 72.734531	 111.530121	 79.229924	 0.043622	 55.591450	 111.530121	 74.507751	 
1582.000000	 111.534521	 78.792276	 0.038347	 49.880856	 111.534521	 72.783521	 111.534530	 79.241241	 0.043071	 55.521268	 111.534530	 74.554502	 
1584.000000	 111.538795	 78.805881	 0.037863	 49.817963	 111.538795	 72.832392	 111.538803	 79.252544	 0.042525	 55.451262	 111.538803	 74.601140	 
1586.000000	 111.542935	 78.819467	 0.037384	 49.755227	 111.542935	 72.881146	 111.542943	 79.263834	 0.041985	 55.381433	 111.542943	 74.647667	 
1588.000000	 111.546946	 78.833034	 0.036909	 49.692650	 111.546946	 72.929782	 111.546954	 79.275108	 0.041450	 55.311779	 111.546954	 74.694081	 
1590.000000	 111.550829	 78.846581	 0.036439	 49.630229	 111.550829	 72.978301	 111.550837	 79.286368	 0.040921	 55.242299	 111.550837	 74.740383	 
1592.000000	 111.554589	 78.860108	 0.035974	 49.567965	 111.554589	 73.026703	 111.554596	 79.297613	 0.040396	 55.172994	 111.554596	 74.786574	 
1594.000000	 111.558227	 78.873615	 0.035514	 49.505856	 111.558227	 73.074988	 111.558235	 79.308842	 0.039878	 55.103862	 111.558235	 74.832654	 
1596.000000	 111.561747	 78.887102	 0.035059	 49.443903	 111.561747	 73.123156	 111.561755	 79.320056	 0.039365	 55.034902	 111.561755	 74.878622	 
1598.000000	 111.565152	 78.900568	 0.034608	 49.382105	 111.565152	 73.171209	 111.565159	 79.331253	 0.038857	 54.966115	 111.565159	 74.924480	 
1600.000000	 111.568444	 78.914013	 0.034162	 49.320460	 111.568444	 73.219145	 111.568452	 79.342434	 0.038354	 54.897500	 111.568452	 74.970228	 
1602.000000	 111.571627	 78.928054	 0.033720	 49.258969	 111.571627	 73.266966	 111.571634	 79.353599	 0.037857	 54.829055	 111.571634	 75.015866	 
1604.000000	 111.574704	 78.943116	 0.033283	 49.197631	 111.574703	 73.314672	 111.574710	 79.364746	 0.037365	 54.760781	 111.574710	 75.061393	 
1606.000000	 111.577676	 78.958153	 0.032851	 49.136446	 111.577676	 73.362262	 111.577683	 79.375876	 0.036879	 54.692676	 111.577683	 75.106811	 
1608.000000	 111.580548	 78.973164	 0.032424	 49.075412	 111.580548	 73.409738	 111.580554	 79.386989	 0.036397	 54.624740	 111.580554	 75.152120	 
1610.000000	 111.583321	 78.988151	 0.032001	 49.014530	 111.583321	 73.457100	 111.583328	 79.398084	 0.035921	 54.556973	 111.583328	 75.197320	 
1612.000000	 111.585999	 79.003112	 0.031583	 48.953798	 111.585999	 73.504348	 111.586006	 79.409161	 0.035450	 54.489374	 111.586006	 75.242411	 
1614.000000	 111.588585	 79.018047	 0.031169	 48.893216	 111.588585	 73.551481	 111.588591	 79.420220	 0.034985	 54.421941	 111.588591	 75.287394	 
1616.000000	 111.591081	 79.032957	 0.030760	 48.832784	 111.591081	 73.598502	 111.591087	 79.431261	 0.034524	 54.354675	 111.591087	 75.332269	 
1618.000000	 111.593490	 79.047840	 0.030356	 48.772502	 111.593490	 73.645409	 111.593496	 79.442282	 0.034069	 54.287575	 111.593496	 75.377036	 
1620.000000	 111.595814	 79.062697	 0.029956	 48.712367	 111.595814	 73.692204	 111.595820	 79.453285	 0.033619	 54.220641	 111.595820	 75.421695	 
1622.000000	 111.598057	 79.077527	 0.029560	 48.652381	 111.598057	 73.738886	 111.598063	 79.464268	 0.033174	 54.153871	 111.598063	 75.466247	 
1624.000000	 111.600221	 79.092331	 0.029169	 48.592542	 111.600221	 73.785455	 111.600227	 79.475232	 0.032734	 54.087265	 111.600227	 75.510692	 
1626.000000	 111.602309	 79.107108	 0.028783	 48.532850	 111.602309	 73.831913	 111.602315	 79.486176	 0.032299	 54.020823	 111.602315	 75.555031	 
1628.000000	 111.604323	 79.121858	 0.028401	 48.473305	 111.604323	 73.878260	 111.604329	 79.497100	 0.031869	 53.954544	 111.604329	 75.599263	 
1630.000000	 111.606266	 79.136580	 0.028023	 48.413905	 111.606266	 73.924495	 111.606271	 79.508005	 0.031444	 53.888427	 111.606271	 75.643389	 
1632.000000	 111.608140	 79.151276	 0.027650	 48.354651	 111.608140	 73.970619	 111.608146	 79.518889	 0.031024	 53.822472	 111.608146	 75.687409	 
1634.000000	 111.609949	 79.165944	 0.027281	 48.295541	 111.609949	 74.016633	 111.609954	 79.529752	 0.030609	 53.756678	 111.609954	 75.731324	 
1636.000000	 111.611693	 79.180584	 0.026916	 48.236576	 111.611693	 74.062537	 111.611698	 79.540809	 0.030199	 53.691045	 111.611698	 75.775134	 
1638.000000	 111.613377	 79.195196	 0.026556	 48.177755	 111.613377	 74.108330	 111.613381	 79.553339	 0.029793	 53.625572	 111.613381	 75.818839	 
1640.000000	 111.615001	 79.209781	 0.026200	 48.119076	 111.615001	 74.154014	 111.615006	 79.565844	 0.029393	 53.560258	 111.615006	 75.862440	 
1642.000000	 111.616569	 79.224337	 0.025848	 48.060541	 111.616569	 74.199589	 111.616574	 79.578326	 0.028997	 53.495102	 111.616574	 75.905936	 
1644.000000	 111.618083	 79.238865	 0.025500	 48.002147	 111.618083	 74.245055	 111.618088	 79.590783	 0.028606	 53.430106	 111.618088	 75.949329	 
1646.000000	 111.619546	 79.253365	 0.025157	 47.943895	 111.619546	 74.290412	 111.619550	 79.603216	 0.028220	 53.365267	 111.619550	 75.992618	 
1648.000000	 111.620958	 79.267837	 0.024817	 47.885785	 111.620958	 74.335661	 111.620963	 79.615624	 0.027838	 53.300585	 111.620963	 76.035804	 
1650.000000	 111.622324	 79.282279	 0.024482	 47.827815	 111.622324	 74.380802	 111.622328	 79.628007	 0.027461	 53.236059	 111.622328	 76.078887	 
1652.000000	 111.623644	 79.296693	 0.024151	 47.769985	 111.623644	 74.425836	 111.623648	 79.640365	 0.027089	 53.171690	 111.623648	 76.121867	 
1654.000000	 111.624921	 79.311079	 0.023824	 47.712295	 111.624921	 74.470762	 111.624925	 79.652699	 0.026721	 53.107476	 111.624925	 76.164745	 
1656.000000	 111.626158	 79.325435	 0.023501	 47.654744	 111.626158	 74.515582	 111.626162	 79.665007	 0.026358	 53.043416	 111.626162	 76.207521	 
1658.000000	 111.627355	 79.339762	 0.023182	 47.597332	 111.627355	 74.560295	 111.627359	 79.677290	 0.025999	 52.979512	 111.627359	 76.250195	 
1660.000000	 111.628516	 79.354061	 0.022867	 47.540057	 111.628516	 74.604901	 111.628520	 79.689547	 0.025644	 52.915760	 111.628520	 76.292768	 
1662.000000	 111.629642	 79.368330	 0.022555	 47.482921	 111.629642	 74.649402	 111.629646	 79.701780	 0.025294	 52.852163	 111.629646	 76.335241	 
1664.000000	 111.630735	 79.382569	 0.022248	 47.425921	 111.630735	 74.693797	 111.630739	 79.713986	 0.024949	 52.788717	 111.630739	 76.377612	 
1666.000000	 111.631797	 79.396780	 0.021944	 47.369058	 111.631797	 74.738087	 111.631801	 79.726167	 0.024607	 52.725424	 111.631801	 76.419883	 
1668.000000	 111.632830	 79.410960	 0.021645	 47.312332	 111.632830	 74.782273	 111.632834	 79.738322	 0.024270	 52.662283	 111.632834	 76.462054	 
1670.000000	 111.633836	 79.425112	 0.021349	 47.255741	 111.633836	 74.826353	 111.633840	 79.750451	 0.023938	 52.599292	 111.633840	 76.504126	 
1672.000000	 111.634817	 79.439233	 0.021056	 47.199285	 111.634817	 74.870330	 111.634820	 79.762554	 0.023609	 52.536452	 111.634820	 76.546098	 
1674.000000	 111.635773	 79.453325	 0.020768	 47.142964	 111.635773	 74.914203	 111.635776	 79.774631	 0.023285	 52.473762	 111.635776	 76.587971	 
1676.000000	 111.636708	 79.467388	 0.020483	 47.086777	 111.636708	 74.957972	 111.636711	 79.786682	 0.022964	 52.411221	 111.636711	 76.629745	 
1678.000000	 111.637622	 79.481420	 0.020201	 47.030724	 111.637622	 75.001638	 111.637625	 79.798707	 0.022648	 52.348829	 111.637625	 76.671421	 
1680.000000	 111.638518	 79.495422	 0.019924	 46.974804	 111.638518	 75.045202	 111.638521	 79.810705	 0.022336	 52.286586	 111.638521	 76.712999	 
1682.000000	 111.639396	 79.509395	 0.019649	 46.919017	 111.639396	 75.088663	 111.639399	 79.822678	 0.022028	 52.224490	 111.639399	 76.754479	 
1684.000000	 111.640259	 79.523337	 0.019379	 46.863362	 111.640259	 75.132021	 111.640262	 79.834623	 0.021723	 52.162542	 111.640262	 76.795862	 
1686.000000	 111.641108	 79.538730	 0.019111	 46.807839	 111.641108	 75.175279	 111.641110	 79.846542	 0.021423	 52.100740	 111.641110	 76.837148	 
1688.000000	 111.641944	 79.554173	 0.018848	 46.752448	 111.641944	 75.218434	 111.641946	 79.858435	 0.021127	 52.039085	 111.641946	 76.878337	 
1690.000000	 111.642769	 79.569584	 0.018587	 46.697187	 111.642769	 75.261489	 111.642771	 79.870301	 0.020834	 51.977575	 111.642771	 76.919429	 
1692.000000	 111.643584	 79.584963	 0.018330	 46.642057	 111.643584	 75.304443	 111.643586	 79.882141	 0.020545	 51.916211	 111.643586	 76.960426	 
1694.000000	 111.644390	 79.600309	 0.018076	 46.587057	 111.644390	 75.347297	 111.644393	 79.893954	 0.020260	 51.854991	 111.644393	 77.001327	 
1696.000000	 111.645190	 79.615621	 0.017826	 46.532187	 111.645190	 75.390050	 111.645192	 79.905740	 0.019979	 51.793915	 111.645192	 77.042132	 
1698.000000	 111.645984	 79.630902	 0.017579	 46.477445	 111.645984	 75.432704	 111.645986	 79.917499	 0.019701	 51.732983	 111.645986	 77.082843	 
1700.000000	 111.646773	 79.646149	 0.017335	 46.422832	 111.646773	 75.475259	 111.646775	 79.929232	 0.019427	 51.672195	 111.646775	 77.123458	 
1702.000000	 111.647558	 79.661363	 0.017094	 46.368347	 111.647558	 75.517714	 111.647560	 79.940938	 0.019156	 51.611549	 111.647560	 77.163979	 
1704.000000	 111.648341	 79.676545	 0.016856	 46.313990	 111.648341	 75.560072	 111.648344	 79.953068	 0.018889	 51.551045	 111.648344	 77.204406	 
1706.000000	 111.649123	 79.691694	 0.016622	 46.259761	 111.649123	 75.602330	 111.649126	 79.966336	 0.018626	 51.490683	 111.649126	 77.244740	 
1708.000000	 111.649905	 79.706810	 0.016390	 46.205658	 111.649905	 75.644491	 111.649908	 79.979575	 0.018366	 51.430462	 111.649908	 77.284980	 
1710.000000	 111.650688	 79.721894	 0.016162	 46.151681	 111.650688	 75.686554	 111.650690	 79.992784	 0.018109	 51.370381	 111.650690	 77.325126	 
1712.000000	 111.651473	 79.736944	 0.015937	 46.097831	 111.651473	 75.728520	 111.651475	 80.005964	 0.017856	 51.310441	 111.651475	 77.365180	 
1714.000000	 111.652261	 79.751962	 0.015714	 46.044106	 111.652261	 75.770389	 111.652263	 80.019114	 0.017606	 51.250641	 111.652263	 77.405142	 
1716.000000	 111.653053	 79.766947	 0.015495	 45.990506	 111.653053	 75.812162	 111.653054	 80.032235	 0.017360	 51.190979	 111.653054	 77.445011	 
1718.000000	 111.653849	 79.781899	 0.015278	 45.937030	 111.653849	 75.853838	 111.653851	 80.045326	 0.017117	 51.131457	 111.653851	 77.484789	 
1720.000000	 111.654651	 79.796818	 0.015064	 45.883679	 111.654651	 75.895419	 111.654653	 80.058387	 0.016877	 51.072072	 111.654653	 77.524475	 
1722.000000	 111.655459	 79.811705	 0.014853	 45.830452	 111.655459	 75.936904	 111.655461	 80.071419	 0.016640	 51.012826	 111.655461	 77.564070	 
1724.000000	 111.656275	 79.826559	 0.014645	 45.777348	 111.656275	 75.978293	 111.656277	 80.084422	 0.016406	 50.953717	 111.656277	 77.603574	 
1726.000000	 111.657099	 79.841380	 0.014440	 45.724366	 111.657099	 76.019588	 111.657101	 80.097394	 0.016176	 50.894744	 111.657101	 77.642988	 
1728.000000	 111.657931	 79.856168	 0.014237	 45.671508	 111.657931	 76.060788	 111.657933	 80.110338	 0.015948	 50.835908	 111.657933	 77.682312	 
1730.000000	 111.658773	 79.870924	 0.014037	 45.618771	 111.658773	 76.101895	 111.658775	 80.123252	 0.015724	 50.777208	 111.658775	 77.721545	 
1732.000000	 111.659625	 79.885647	 0.013840	 45.566156	 111.659625	 76.142907	 111.659627	 80.136136	 0.015503	 50.718643	 111.659627	 77.760690	 
1734.000000	 111.660488	 79.900337	 0.013646	 45.513662	 111.660488	 76.183826	 111.660489	 80.148991	 0.015284	 50.660213	 111.660489	 77.799745	 
1736.000000	 111.661362	 79.914995	 0.013454	 45.461289	 111.661362	 76.224651	 111.661363	 80.161817	 0.015069	 50.601917	 111.661363	 77.838711	 
1738.000000	 111.662248	 79.929620	 0.013264	 45.409036	 111.662248	 76.265384	 111.662249	 80.174613	 0.014856	 50.543756	 111.662249	 77.877588	 
1740.000000	 111.663146	 79.944213	 0.013077	 45.356904	 111.663146	 76.306024	 111.663148	 80.187379	 0.014646	 50.485727	 111.663148	 77.916378	 
1742.000000	 111.664058	 79.958773	 0.012893	 45.304890	 111.664058	 76.346573	 111.664059	 80.200117	 0.014439	 50.427832	 111.664059	 77.955079	 
1744.000000	 111.664982	 79.973301	 0.012711	 45.252996	 111.664982	 76.387029	 111.664984	 80.212825	 0.014235	 50.370070	 111.664984	 77.993693	 
1746.000000	 111.665921	 79.987796	 0.012532	 45.201221	 111.665921	 76.427394	 111.665922	 80.225504	 0.014034	 50.312440	 111.665922	 78.032219	 
1748.000000	 111.666874	 80.002259	 0.012355	 45.149564	 111.666874	 76.467667	 111.666875	 80.238153	 0.013846	 50.254941	 111.666875	 78.070659	 
1750.000000	 111.667842	 80.016689	 0.012180	 45.098025	 111.667842	 76.507850	 111.667843	 80.250773	 0.013673	 50.197574	 111.667843	 78.109012	 
1752.000000	 111.668824	 80.031088	 0.012008	 45.046603	 111.668824	 76.547942	 111.668826	 80.263365	 0.013501	 50.140338	 111.668826	 78.147278	 
1754.000000	 111.669823	 80.045454	 0.011838	 44.995299	 111.669823	 76.587944	 111.669824	 80.275927	 0.013332	 50.083232	 111.669824	 78.185459	 
1756.000000	 111.670836	 80.059788	 0.011670	 44.944111	 111.670836	 76.627857	 111.670838	 80.288460	 0.013165	 50.026255	 111.670838	 78.223554	 
1758.000000	 111.671866	 80.074089	 0.011505	 44.893040	 111.671866	 76.667679	 111.671867	 80.300964	 0.012999	 49.969409	 111.671867	 78.261563	 
1760.000000	 111.672912	 80.088359	 0.011342	 44.842084	 111.672912	 76.707413	 111.672914	 80.313439	 0.012836	 49.912691	 111.672914	 78.299487	 
1762.000000	 111.673975	 80.102596	 0.011181	 44.791244	 111.673975	 76.747057	 111.673976	 80.325885	 0.012674	 49.856102	 111.673976	 78.337327	 
1764.000000	 111.675054	 80.116802	 0.011022	 44.740519	 111.675054	 76.786613	 111.675056	 80.338302	 0.012514	 49.799641	 111.675056	 78.375082	 
1766.000000	 111.676151	 80.132447	 0.010865	 44.689909	 111.676151	 76.826081	 111.676152	 80.350690	 0.012356	 49.743307	 111.676152	 78.412753	 
1768.000000	 111.677264	 80.148066	 0.010711	 44.639413	 111.677264	 76.865461	 111.677265	 80.363481	 0.012200	 49.687102	 111.677265	 78.450340	 
1770.000000	 111.678395	 80.163650	 0.010559	 44.589031	 111.678395	 76.904753	 111.678396	 80.377344	 0.012045	 49.631022	 111.678396	 78.487843	 
1772.000000	 111.679543	 80.179201	 0.010408	 44.538763	 111.679543	 76.943958	 111.679544	 80.391177	 0.011892	 49.575070	 111.679544	 78.525263	 
1774.000000	 111.680708	 80.194717	 0.010260	 44.488608	 111.680708	 76.983076	 111.680709	 80.404978	 0.011741	 49.519243	 111.680709	 78.562600	 
1776.000000	 111.681891	 80.210199	 0.010114	 44.438566	 111.681891	 77.022107	 111.681892	 80.418748	 0.011592	 49.463542	 111.681892	 78.599855	 
1778.000000	 111.683091	 80.225648	 0.009970	 44.388636	 111.683091	 77.061052	 111.683092	 80.432487	 0.011445	 49.407966	 111.683092	 78.637027	 
1780.000000	 111.684309	 80.241062	 0.009827	 44.338818	 111.684309	 77.099911	 111.684310	 80.446195	 0.011299	 49.352515	 111.684310	 78.674117	 
1782.000000	 111.685545	 80.256443	 0.009687	 44.289112	 111.685545	 77.138684	 111.685546	 80.459872	 0.011155	 49.297188	 111.685546	 78.711125	 
1784.000000	 111.686799	 80.271790	 0.009549	 44.239517	 111.686799	 77.177371	 111.686799	 80.473518	 0.011012	 49.241985	 111.686799	 78.748052	 
1786.000000	 111.688070	 80.287104	 0.009412	 44.190033	 111.688070	 77.215974	 111.688070	 80.487133	 0.010871	 49.186905	 111.688070	 78.784898	 
1788.000000	 111.689358	 80.302383	 0.009277	 44.140660	 111.689358	 77.254492	 111.689359	 80.500718	 0.010732	 49.131948	 111.689359	 78.821662	 
1790.000000	 111.690664	 80.317630	 0.009145	 44.091397	 111.690664	 77.292925	 111.690665	 80.514272	 0.010595	 49.077115	 111.690665	 78.858346	 
1792.000000	 111.691988	 80.332842	 0.009027	 44.042244	 111.691988	 77.331274	 111.691989	 80.527796	 0.010459	 49.022403	 111.691989	 78.894950	 
1794.000000	 111.693329	 80.348022	 0.008913	 43.993200	 111.693329	 77.369539	 111.693330	 80.541289	 0.010324	 48.967813	 111.693330	 78.931474	 
1796.000000	 111.694687	 80.363168	 0.008799	 43.944265	 111.694687	 77.407720	 111.694688	 80.554752	 0.010192	 48.913345	 111.694688	 78.967918	 
1798.000000	 111.696062	 80.378281	 0.008687	 43.895439	 111.696062	 77.445818	 111.696063	 80.568184	 0.010060	 48.858997	 111.696063	 79.004282	 
1800.000000	 111.697455	 80.393361	 0.008577	 43.846721	 111.697455	 77.483833	 111.697455	 80.581586	 0.009931	 48.804771	 111.697455	 79.040568	 
1802.000000	 111.698864	 80.408407	 0.008467	 43.798112	 111.698864	 77.521766	 111.698864	 80.594958	 0.009803	 48.750664	 111.698864	 79.076774	 
1804.000000	 111.700290	 80.423421	 0.008359	 43.749609	 111.700290	 77.559616	 111.700290	 80.608300	 0.009676	 48.696678	 111.700290	 79.112902	 
1806.000000	 111.701732	 80.438402	 0.008252	 43.701215	 111.701732	 77.597383	 111.701733	 80.621612	 0.009551	 48.642810	 111.701733	 79.148952	 
1808.000000	 111.703191	 80.453350	 0.008146	 43.652927	 111.703191	 77.635069	 111.703191	 80.634893	 0.009427	 48.589062	 111.703191	 79.184923	 
1810.000000	 111.704666	 80.468265	 0.008042	 43.604746	 111.704666	 77.672674	 111.704666	 80.648145	 0.009305	 48.535432	 111.704666	 79.220817	 
1812.000000	 111.706156	 80.483147	 0.007938	 43.556671	 111.706156	 77.710197	 111.706157	 80.661367	 0.009184	 48.481921	 111.706157	 79.256633	 
1814.000000	 111.707663	 80.497997	 0.007836	 43.508702	 111.707663	 77.747639	 111.707663	 80.674559	 0.009065	 48.428528	 111.707663	 79.292372	 
1816.000000	 111.709184	 80.512815	 0.007736	 43.460838	 111.709184	 77.785000	 111.709185	 80.687722	 0.008947	 48.375251	 111.709185	 79.328034	 
1818.000000	 111.710721	 80.527600	 0.007636	 43.413080	 111.710721	 77.822281	 111.710722	 80.700855	 0.008831	 48.322093	 111.710722	 79.363619	 
1820.000000	 111.712273	 80.542352	 0.007537	 43.365426	 111.712273	 77.859482	 111.712274	 80.713959	 0.008716	 48.269050	 111.712274	 79.399128	 
1822.000000	 111.713840	 80.557072	 0.007440	 43.317877	 111.713840	 77.896603	 111.713840	 80.727033	 0.008602	 48.216124	 111.713840	 79.434561	 
1824.000000	 111.715421	 80.571760	 0.007344	 43.270432	 111.715421	 77.933644	 111.715421	 80.740077	 0.008490	 48.163314	 111.715421	 79.469918	 
1826.000000	 111.717016	 80.586416	 0.007249	 43.223091	 111.717016	 77.970606	 111.717016	 80.753093	 0.008379	 48.110620	 111.717016	 79.505199	 
1828.000000	 111.718624	 80.601040	 0.007155	 43.175853	 111.718624	 78.007489	 111.718625	 80.766479	 0.008269	 48.058040	 111.718625	 79.540405	 
1830.000000	 111.720246	 80.615632	 0.007062	 43.128718	 111.720246	 78.044294	 111.720247	 80.780890	 0.008161	 48.005576	 111.720247	 79.575536	 
1832.000000	 111.721882	 80.630192	 0.006970	 43.081687	 111.721882	 78.081019	 111.721882	 80.795270	 0.008054	 47.953226	 111.721882	 79.610592	 
1834.000000	 111.723530	 80.644720	 0.006879	 43.034757	 111.723530	 78.117667	 111.723530	 80.809618	 0.007948	 47.900989	 111.723530	 79.645573	 
1836.000000	 111.725191	 80.659217	 0.006790	 42.987930	 111.725191	 78.154237	 111.725191	 80.823935	 0.007843	 47.848867	 111.725191	 79.680480	 
1838.000000	 111.726863	 80.673682	 0.006701	 42.941205	 111.726863	 78.190729	 111.726864	 80.838221	 0.007740	 47.796858	 111.726864	 79.715313	 
1840.000000	 111.728548	 80.688115	 0.006614	 42.894581	 111.728548	 78.227143	 111.728548	 80.852476	 0.007638	 47.744962	 111.728548	 79.750072	 
1842.000000	 111.730244	 80.703409	 0.006528	 42.848058	 111.730244	 78.263480	 111.730244	 80.866700	 0.007538	 47.693178	 111.730244	 79.784758	 
1844.000000	 111.731951	 80.719177	 0.006442	 42.801636	 111.731951	 78.299741	 111.731951	 80.880892	 0.007438	 47.641506	 111.731951	 79.819370	 
1846.000000	 111.733669	 80.734912	 0.006358	 42.755314	 111.733669	 78.335925	 111.733669	 80.895054	 0.007340	 47.589947	 111.733669	 79.853909	 
1848.000000	 111.735397	 80.750613	 0.006274	 42.709093	 111.735397	 78.372032	 111.735398	 80.909185	 0.007243	 47.538499	 111.735397	 79.888376	 
1850.000000	 111.737135	 80.766281	 0.006192	 42.662971	 111.737135	 78.408064	 111.737136	 80.923285	 0.007147	 47.487162	 111.737136	 79.922770	 
1852.000000	 111.738883	 80.781915	 0.006111	 42.616949	 111.738883	 78.444019	 111.738884	 80.937355	 0.007052	 47.435935	 111.738884	 79.957091	 
1854.000000	 111.740640	 80.797516	 0.006030	 42.571026	 111.740640	 78.479899	 111.740641	 80.951394	 0.006959	 47.384819	 111.740641	 79.991341	 
1856.000000	 111.742406	 80.813085	 0.005951	 42.525202	 111.742406	 78.515704	 111.742406	 80.965402	 0.006866	 47.333814	 111.742406	 80.025518	 
1858.000000	 111.744180	 80.828620	 0.005873	 42.479476	 111.744180	 78.551433	 111.744181	 80.979380	 0.006775	 47.282917	 111.744181	 80.059624	 
1860.000000	 111.745963	 80.844122	 0.005795	 42.433849	 111.745963	 78.587088	 111.745963	 80.993328	 0.006685	 47.232130	 111.745963	 80.093659	 
1862.000000	 111.747753	 80.859591	 0.005719	 42.388320	 111.747753	 78.622668	 111.747753	 81.007245	 0.006596	 47.181453	 111.747753	 80.127623	 
1864.000000	 111.749550	 80.875027	 0.005643	 42.342888	 111.749550	 78.658174	 111.749551	 81.021133	 0.006508	 47.130883	 111.749551	 80.161515	 
1866.000000	 111.751355	 80.890431	 0.005568	 42.297553	 111.751355	 78.693605	 111.751355	 81.034990	 0.006421	 47.080422	 111.751355	 80.195337	 
1868.000000	 111.753165	 80.905802	 0.005494	 42.252316	 111.753165	 78.728963	 111.753166	 81.048818	 0.006335	 47.030069	 111.753166	 80.229089	 
1870.000000	 111.754982	 80.921140	 0.005422	 42.207175	 111.754982	 78.764247	 111.754983	 81.062615	 0.006251	 46.979824	 111.754983	 80.262770	 
1872.000000	 111.756805	 80.936446	 0.005350	 42.162130	 111.756805	 78.799458	 111.756805	 81.076383	 0.006167	 46.929686	 111.756805	 80.296382	 
1874.000000	 111.758632	 80.951720	 0.005278	 42.117181	 111.758632	 78.834596	 111.758633	 81.090121	 0.006084	 46.879654	 111.758633	 80.329924	 
1876.000000	 111.760465	 80.966961	 0.005208	 42.072328	 111.760465	 78.869660	 111.760465	 81.103829	 0.006003	 46.829729	 111.760465	 80.363396	 
1878.000000	 111.762302	 80.982170	 0.005139	 42.027571	 111.762302	 78.904653	 111.762302	 81.117508	 0.005922	 46.779911	 111.762302	 80.396799	 
1880.000000	 111.764143	 80.997347	 0.005070	 41.982909	 111.764143	 78.939572	 111.764144	 81.131157	 0.005842	 46.730198	 111.764144	 80.430133	 
1882.000000	 111.765988	 81.012492	 0.005003	 41.938341	 111.765988	 78.974420	 111.765988	 81.144777	 0.005764	 46.680591	 111.765988	 80.463398	 
1884.000000	 111.767836	 81.027605	 0.004936	 41.893868	 111.767836	 79.009195	 111.767836	 81.159027	 0.005686	 46.631089	 111.767836	 80.496595	 
1886.000000	 111.769687	 81.042686	 0.004870	 41.849489	 111.769687	 79.043899	 111.769687	 81.173969	 0.005610	 46.581692	 111.769687	 80.529723	 
1888.000000	 111.771540	 81.057735	 0.004805	 41.805205	 111.771540	 79.078532	 111.771540	 81.188879	 0.005534	 46.532399	 111.771540	 80.562783	 
1890.000000	 111.773395	 81.072753	 0.004740	 41.761013	 111.773395	 79.113093	 111.773396	 81.203758	 0.005459	 46.483211	 111.773396	 80.595775	 
1892.000000	 111.775252	 81.087739	 0.004676	 41.716915	 111.775252	 79.147583	 111.775253	 81.218606	 0.005385	 46.434127	 111.775253	 80.628700	 
1894.000000	 111.777110	 81.102693	 0.004614	 41.672911	 111.777110	 79.182002	 111.777111	 81.233422	 0.005312	 46.385146	 111.777111	 80.661557	 
1896.000000	 111.778969	 81.117616	 0.004552	 41.628998	 111.778969	 79.216351	 111.778970	 81.248208	 0.005240	 46.336268	 111.778970	 80.694346	 
1898.000000	 111.780829	 81.132508	 0.004490	 41.585179	 111.780829	 79.250629	 111.780829	 81.262962	 0.005169	 46.287493	 111.780829	 80.727069	 
1900.000000	 111.782688	 81.147368	 0.004430	 41.541451	 111.782688	 79.284837	 111.782688	 81.277685	 0.005099	 46.238821	 111.782688	 80.759725	 
1902.000000	 111.784547	 81.162197	 0.004370	 41.497815	 111.784547	 79.318976	 111.784547	 81.292377	 0.005030	 46.190251	 111.784547	 80.792314	 
1904.000000	 111.786405	 81.176995	 0.004311	 41.454271	 111.786405	 79.353044	 111.786406	 81.307039	 0.004961	 46.141783	 111.786406	 80.824836	 
1906.000000	 111.788262	 81.191762	 0.004253	 41.410818	 111.788262	 79.387044	 111.788263	 81.321669	 0.004894	 46.093417	 111.788263	 80.857293	 
1908.000000	 111.790118	 81.206499	 0.004195	 41.367457	 111.790118	 79.420973	 111.790118	 81.336269	 0.004827	 46.045151	 111.790118	 80.889683	 
1910.000000	 111.791971	 81.221204	 0.004138	 41.324185	 111.791971	 79.454834	 111.791972	 81.350839	 0.004761	 45.996987	 111.791972	 80.922008	 
1912.000000	 111.793823	 81.235878	 0.004082	 41.281005	 111.793823	 79.488626	 111.793823	 81.365378	 0.004696	 45.948924	 111.793823	 80.954267	 
1914.000000	 111.795671	 81.250560	 0.004027	 41.237914	 111.795671	 79.522350	 111.795672	 81.379887	 0.004632	 45.900961	 111.795672	 80.986460	 
1916.000000	 111.797517	 81.266495	 0.003972	 41.194913	 111.797517	 79.556005	 111.797517	 81.394365	 0.004569	 45.853097	 111.797517	 81.018588	 
1918.000000	 111.799359	 81.282398	 0.003918	 41.152002	 111.799359	 79.589591	 111.799359	 81.408813	 0.004506	 45.805334	 111.799359	 81.050652	 
1920.000000	 111.801197	 81.298268	 0.003865	 41.109180	 111.801197	 79.623110	 111.801197	 81.423231	 0.004444	 45.757670	 111.801197	 81.082650	 
1922.000000	 111.803031	 81.314106	 0.003812	 41.066448	 111.803031	 79.656561	 111.803031	 81.437619	 0.004383	 45.710105	 111.803031	 81.114584	 
1924.000000	 111.804861	 81.329911	 0.003760	 41.023804	 111.804861	 79.689945	 111.804861	 81.451976	 0.004323	 45.662639	 111.804861	 81.146453	 
1926.000000	 111.806686	 81.345684	 0.003709	 40.981248	 111.806686	 79.723261	 111.806686	 81.466304	 0.004264	 45.615271	 111.806686	 81.178258	 
1928.000000	 111.808505	 81.361424	 0.003658	 40.938780	 111.808505	 79.756510	 111.808505	 81.480603	 0.004205	 45.568002	 111.808505	 81.210000	 
1930.000000	 111.810319	 81.377133	 0.003608	 40.896401	 111.810319	 79.789692	 111.810319	 81.494871	 0.004147	 45.520830	 111.810319	 81.241677	 
1932.000000	 111.812127	 81.392809	 0.003558	 40.854109	 111.812127	 79.822807	 111.812127	 81.509110	 0.004090	 45.473756	 111.812127	 81.273291	 
1934.000000	 111.813928	 81.408453	 0.003510	 40.811905	 111.813928	 79.855856	 111.813928	 81.523589	 0.004033	 45.426779	 111.813928	 81.304841	 
1936.000000	 111.815723	 81.424064	 0.003461	 40.769787	 111.815723	 79.888838	 111.815723	 81.540597	 0.003977	 45.379899	 111.815723	 81.336328	 
1938.000000	 111.817511	 81.439644	 0.003414	 40.727757	 111.817511	 79.921754	 111.817512	 81.571810	 0.003922	 45.333116	 111.817512	 81.367752	 
1940.000000	 111.819292	 81.455193	 0.003367	 40.685813	 111.819292	 79.954604	 111.819292	 81.602961	 0.003868	 45.286429	 111.819292	 81.399113	 
1942.000000	 111.821065	 81.470709	 0.003320	 40.643955	 111.821065	 79.987388	 111.821066	 81.634050	 0.003814	 45.239838	 111.821066	 81.430411	 
1944.000000	 111.822831	 81.486194	 0.003275	 40.602184	 111.822831	 80.020107	 111.822831	 81.665076	 0.003762	 45.193343	 111.822831	 81.461647	 
1946.000000	 111.824588	 81.501647	 0.003229	 40.560498	 111.824588	 80.052761	 111.824588	 81.696041	 0.003709	 45.146943	 111.824588	 81.492820	 
1948.000000	 111.826336	 81.517069	 0.003185	 40.518897	 111.826336	 80.085349	 111.826337	 81.726943	 0.003658	 45.100639	 111.826337	 81.523931	 
1950.000000	 111.828076	 81.532459	 0.003141	 40.477382	 111.828076	 80.117872	 111.828076	 81.757785	 0.003607	 45.054430	 111.828076	 81.554981	 
1952.000000	 111.829807	 81.547818	 0.003097	 40.435952	 111.829807	 80.150331	 111.829807	 81.788565	 0.003556	 45.008315	 111.829807	 81.585968	 
1954.000000	 111.831528	 81.563145	 0.003054	 40.394607	 111.831528	 80.182725	 111.831528	 81.819284	 0.003507	 44.962294	 111.831528	 81.616894	 
1956.000000	 111.833240	 81.578442	 0.003012	 40.353346	 111.833240	 80.215054	 111.833240	 81.849941	 0.003458	 44.916367	 111.833240	 81.647758	 
1958.000000	 111.834941	 81.593707	 0.002970	 40.312169	 111.834941	 80.247319	 111.834941	 81.880538	 0.003410	 44.870534	 111.834941	 81.678562	 
1960.000000	 111.836632	 81.608941	 0.002929	 40.271076	 111.836632	 80.279520	 111.836633	 81.911075	 0.003362	 44.824795	 111.836633	 81.709304	 
1962.000000	 111.838313	 81.624144	 0.002888	 40.230067	 111.838313	 80.311657	 111.838313	 81.941550	 0.003315	 44.779149	 111.838313	 81.739985	 
1964.000000	 111.839983	 81.639317	 0.002848	 40.189141	 111.839983	 80.343731	 111.839983	 81.971966	 0.003268	 44.733595	 111.839983	 81.770606	 
1966.000000	 111.841642	 81.654458	 0.002808	 40.148299	 111.841642	 80.375741	 111.841642	 82.002321	 0.003222	 44.688135	 111.841642	 81.801166	 
1968.000000	 111.843290	 81.669569	 0.002769	 40.107539	 111.843290	 80.407688	 111.843290	 82.032617	 0.003177	 44.642766	 111.843290	 81.831665	 
1970.000000	 111.844926	 81.684650	 0.002730	 40.066863	 111.844926	 80.439571	 111.844926	 82.062852	 0.003133	 44.597490	 111.844926	 81.862104	 
1972.000000	 111.846550	 81.699699	 0.002692	 40.026268	 111.846550	 80.471392	 111.846550	 82.093028	 0.003088	 44.552305	 111.846550	 81.892484	 
1974.000000	 111.848162	 81.714718	 0.002654	 39.985756	 111.848162	 80.503150	 111.848162	 82.123145	 0.003045	 44.507211	 111.848162	 81.922803	 
1976.000000	 111.849762	 81.729707	 0.002617	 39.945325	 111.849762	 80.534845	 111.849762	 82.153202	 0.003002	 44.462209	 111.849762	 81.953063	 
1978.000000	 111.851350	 81.744666	 0.002580	 39.904977	 111.851350	 80.566478	 111.851350	 82.183200	 0.002960	 44.417298	 111.851350	 81.983263	 
1980.000000	 111.852925	 81.759594	 0.002544	 39.864709	 111.852925	 80.598048	 111.852925	 82.213139	 0.002918	 44.372478	 111.852925	 82.013404	 
1982.000000	 111.854487	 81.774492	 0.002508	 39.824523	 111.854487	 80.629557	 111.854487	 82.243020	 0.002876	 44.327747	 111.854487	 82.043486	 
1984.000000	 111.856035	 81.789940	 0.002473	 39.784418	 111.856035	 80.661003	 111.856036	 82.272841	 0.002836	 44.283107	 111.856035	 82.073509	 
1986.000000	 111.857571	 81.806027	 0.002438	 39.744394	 111.857571	 80.692388	 111.857571	 82.302605	 0.002796	 44.238557	 111.857571	 82.103472	 
1988.000000	 111.859093	 81.822082	 0.002404	 39.704450	 111.859093	 80.723712	 111.859093	 82.332310	 0.002756	 44.194096	 111.859093	 82.133378	 
1990.000000	 111.860601	 81.838105	 0.002370	 39.664586	 111.860601	 80.754973	 111.860601	 82.361957	 0.002717	 44.149725	 111.860601	 82.163224	 
1992.000000	 111.862096	 81.854097	 0.002336	 39.624802	 111.862096	 80.786174	 111.862096	 82.391546	 0.002678	 44.105442	 111.862096	 82.193012	 
1994.000000	 111.863576	 81.870056	 0.002303	 39.585098	 111.863576	 80.817314	 111.863576	 82.421077	 0.002640	 44.061249	 111.863576	 82.222742	 
1996.000000	 111.865042	 81.885984	 0.002271	 39.545473	 111.865042	 80.848393	 111.865042	 82.450550	 0.002602	 44.017144	 111.865042	 82.252414	 
1998.000000	 111.866494	 81.901879	 0.002239	 39.505928	 111.866494	 80.879411	 111.866494	 82.479966	 0.002565	 43.973127	 111.866494	 82.282028	 
2000.000000	 111.867931	 81.917744	 0.002207	 39.466462	 111.867931	 80.910368	 111.867931	 82.509325	 0.002529	 43.929197	 111.867931	 82.311585	 
2002.000000	 111.869353	 81.933576	 0.002175	 39.427074	 111.869353	 80.941265	 111.869353	 82.538626	 0.002492	 43.885356	 111.869353	 82.341083	 
2004.000000	 111.870760	 81.949378	 0.002144	 39.387765	 111.870760	 80.972102	 111.870760	 82.567870	 0.002457	 43.841602	 111.870760	 82.370525	 
2006.000000	 111.872153	 81.965148	 0.002114	 39.348534	 111.872153	 81.002879	 111.872153	 82.597058	 0.002422	 43.797935	 111.872153	 82.399909	 
2008.000000	 111.873530	 81.980886	 0.002084	 39.309382	 111.873530	 81.033596	 111.873530	 82.626189	 0.002390	 43.754355	 111.873530	 82.429236	 
2010.000000	 111.874892	 81.996594	 0.002054	 39.270307	 111.874892	 81.064254	 111.874892	 82.655263	 0.002358	 43.710862	 111.874892	 82.458506	 
2012.000000	 111.876239	 82.012270	 0.002025	 39.231310	 111.876239	 81.094851	 111.876239	 82.684281	 0.002326	 43.667455	 111.876239	 82.487719	 
2014.000000	 111.877570	 82.027915	 0.001996	 39.192390	 111.877570	 81.125390	 111.877570	 82.713242	 0.002295	 43.624134	 111.877570	 82.516876	 
2016.000000	 111.878885	 82.043529	 0.001967	 39.153547	 111.878885	 81.155869	 111.878885	 82.742148	 0.002265	 43.580900	 111.878885	 82.545976	 
2018.000000	 111.880185	 82.059113	 0.001939	 39.114781	 111.880185	 81.186289	 111.880185	 82.770998	 0.002235	 43.537750	 111.880185	 82.575019	 
2020.000000	 111.881469	 82.074665	 0.001911	 39.076092	 111.881468	 81.216650	 111.881469	 82.799791	 0.002205	 43.494686	 111.881469	 82.604007	 
2022.000000	 111.882736	 82.090187	 0.001884	 39.037479	 111.882736	 81.246953	 111.882736	 82.828529	 0.002175	 43.451708	 111.882736	 82.632939	 
2024.000000	 111.883988	 82.105677	 0.001857	 38.998943	 111.883988	 81.277196	 111.883988	 82.857212	 0.002146	 43.408814	 111.883988	 82.661814	 
2026.000000	 111.885224	 82.121138	 0.001830	 38.960483	 111.885224	 81.307382	 111.885224	 82.885839	 0.002117	 43.366004	 111.885224	 82.690634	 
2028.000000	 111.886443	 82.136567	 0.001804	 38.922098	 111.886443	 81.337509	 111.886443	 82.914411	 0.002089	 43.323279	 111.886443	 82.719398	 
2030.000000	 111.887646	 82.151967	 0.001778	 38.883789	 111.887646	 81.367578	 111.887646	 82.942928	 0.002061	 43.280638	 111.887646	 82.748107	 
2032.000000	 111.888833	 82.167336	 0.001752	 38.845555	 111.888833	 81.397589	 111.888833	 82.971390	 0.002033	 43.238081	 111.888833	 82.776761	 
2034.000000	 111.890003	 82.182674	 0.001727	 38.807396	 111.890003	 81.427542	 111.890003	 82.999797	 0.002006	 43.195608	 111.890003	 82.805359	 
2036.000000	 111.891156	 82.197982	 0.001702	 38.769313	 111.891156	 81.457438	 111.891156	 83.028150	 0.001978	 43.153218	 111.891156	 82.833903	 
2038.000000	 111.892293	 82.213261	 0.001677	 38.731304	 111.892293	 81.487276	 111.892293	 83.056448	 0.001952	 43.110911	 111.892293	 82.862391	 
2040.000000	 111.893414	 82.228509	 0.001653	 38.693369	 111.893414	 81.517057	 111.893414	 83.084692	 0.001925	 43.068687	 111.893414	 82.890825	 
2042.000000	 111.894518	 82.243726	 0.001629	 38.655509	 111.894518	 81.546780	 111.894518	 83.112882	 0.001899	 43.026545	 111.894518	 82.919205	 
2044.000000	 111.895605	 82.258914	 0.001605	 38.617722	 111.895605	 81.576447	 111.895605	 83.141017	 0.001873	 42.984486	 111.895605	 82.947529	 
2046.000000	 111.896675	 82.274073	 0.001582	 38.580010	 111.896675	 81.606056	 111.896675	 83.169099	 0.001848	 42.942509	 111.896675	 82.975800	 
2048.000000	 111.897729	 82.289690	 0.001559	 38.542371	 111.897729	 81.635609	 111.897729	 83.197127	 0.001823	 42.900614	 111.897729	 83.004017	 
2050.000000	 111.898766	 82.305971	 0.001536	 38.504805	 111.898766	 81.665105	 111.898766	 83.225101	 0.001798	 42.858801	 111.898766	 83.032179	 
