# Nusselt number time series
# <Nu(t)> averaged between 400.000000 and 600.000000 with sampling frequency 1.000000
# time		 Nu(t)		 <Nu(t)>
400.000000	 13.742562	 13.742562
401.000000	 19.737351	 16.739957
402.000000	 27.878709	 20.452874
403.000000	 34.690518	 24.012285
404.000000	 37.859762	 26.781781
405.000000	 37.214981	 28.520647
406.000000	 34.859607	 29.426213
407.000000	 34.796549	 30.097505
408.000000	 38.230594	 31.001182
409.000000	 40.334740	 31.934538
410.000000	 38.585124	 32.539136
411.000000	 33.534020	 32.622043
412.000000	 26.851164	 32.178130
413.000000	 22.184943	 31.464330
414.000000	 20.566299	 30.737795
415.000000	 19.503419	 30.035647
416.000000	 17.785895	 29.315073
417.000000	 16.137292	 28.582974
418.000000	 15.548613	 27.896955
419.000000	 15.322011	 27.268208
420.000000	 14.517727	 26.661042
421.000000	 14.574596	 26.111658
422.000000	 16.187094	 25.680155
423.000000	 19.480052	 25.421818
424.000000	 24.180660	 25.372171
425.000000	 27.442961	 25.451817
426.000000	 25.859031	 25.466899
427.000000	 19.883789	 25.267502
428.000000	 13.345729	 24.856407
429.000000	 9.161507	 24.333243
430.000000	 8.936074	 23.836560
431.000000	 11.623740	 23.454910
432.000000	 15.805811	 23.223119
433.000000	 21.002317	 23.157801
434.000000	 27.177140	 23.272640
435.000000	 34.978315	 23.597797
436.000000	 44.031783	 24.150067
437.000000	 51.182558	 24.861448
438.000000	 53.301926	 25.590691
439.000000	 49.664822	 26.192545
440.000000	 43.219877	 26.607845
441.000000	 35.827318	 26.827357
442.000000	 27.817740	 26.850389
443.000000	 20.286021	 26.701199
444.000000	 13.363785	 26.404812
445.000000	 7.786575	 26.000067
446.000000	 4.066874	 25.533404
447.000000	 3.560033	 25.075625
448.000000	 6.484044	 24.696205
449.000000	 11.471990	 24.431721
450.000000	 16.006139	 24.266513
451.000000	 18.887983	 24.163080
452.000000	 20.516956	 24.094285
453.000000	 22.577496	 24.066197
454.000000	 26.647544	 24.113130
455.000000	 31.725050	 24.249057
456.000000	 35.644805	 24.448983
457.000000	 38.287883	 24.687584
458.000000	 40.784814	 24.960419
459.000000	 43.285568	 25.265838
460.000000	 45.353359	 25.595142
461.000000	 45.659328	 25.918758
462.000000	 43.792587	 26.202469
463.000000	 40.171465	 26.420735
464.000000	 33.557487	 26.530531
465.000000	 23.942079	 26.491312
466.000000	 12.556719	 26.283333
467.000000	 2.538078	 25.934138
468.000000	 -3.938656	 25.501199
469.000000	 -6.676840	 25.041513
470.000000	 -5.774231	 24.607488
471.000000	 -1.196655	 24.249097
472.000000	 5.694229	 23.994921
473.000000	 11.742193	 23.829344
474.000000	 15.373053	 23.716593
475.000000	 18.653629	 23.649975
476.000000	 21.445168	 23.621341
477.000000	 22.713308	 23.609700
478.000000	 22.484071	 23.595451
479.000000	 22.688935	 23.584120
480.000000	 25.383413	 23.606333
481.000000	 29.859510	 23.682592
482.000000	 34.696201	 23.815286
483.000000	 39.583504	 24.003003
484.000000	 44.433954	 24.243367
485.000000	 48.532100	 24.525794
486.000000	 49.870192	 24.817109
487.000000	 46.099377	 25.058953
488.000000	 37.765445	 25.201722
489.000000	 27.898650	 25.231688
490.000000	 17.881494	 25.150917
491.000000	 8.160269	 24.966236
492.000000	 0.046698	 24.698284
493.000000	 -5.267230	 24.379502
494.000000	 -6.671272	 24.052652
495.000000	 -3.334676	 23.767367
496.000000	 3.775847	 23.561269
497.000000	 12.001032	 23.443307
498.000000	 19.707036	 23.405567
499.000000	 26.568107	 23.437192
500.000000	 31.084773	 23.512911
501.000000	 32.317684	 23.599232
502.000000	 30.008630	 23.661459
503.000000	 25.854631	 23.682548
504.000000	 22.613139	 23.672363
505.000000	 22.022468	 23.656798
506.000000	 24.784576	 23.667338
507.000000	 30.746406	 23.732885
508.000000	 37.248174	 23.856878
509.000000	 42.144239	 24.023127
510.000000	 44.474256	 24.207371
511.000000	 43.863657	 24.382874
512.000000	 39.736288	 24.518745
513.000000	 32.218920	 24.586290
514.000000	 22.804969	 24.570800
515.000000	 13.517231	 24.475511
516.000000	 5.704413	 24.315074
517.000000	 0.529847	 24.113505
518.000000	 0.139774	 23.912045
519.000000	 4.095215	 23.746904
520.000000	 9.911850	 23.632565
521.000000	 17.639782	 23.583444
522.000000	 25.726743	 23.600869
523.000000	 30.771196	 23.658694
524.000000	 30.152896	 23.710648
525.000000	 25.675792	 23.726244
526.000000	 20.367999	 23.699801
527.000000	 15.088221	 23.632524
528.000000	 11.150465	 23.535763
529.000000	 9.749647	 23.429716
530.000000	 12.709553	 23.347883
531.000000	 20.501207	 23.326317
532.000000	 31.578467	 23.388364
533.000000	 42.927460	 23.534178
534.000000	 50.465639	 23.733670
535.000000	 51.149667	 23.935258
536.000000	 44.420063	 24.084782
537.000000	 35.509245	 24.167568
538.000000	 28.594861	 24.199419
539.000000	 21.972197	 24.183511
540.000000	 15.048790	 24.118725
541.000000	 8.129754	 24.006127
542.000000	 1.307881	 23.847398
543.000000	 -1.677980	 23.670138
544.000000	 2.258543	 23.522472
545.000000	 10.523101	 23.433435
546.000000	 16.837064	 23.388562
547.000000	 19.324522	 23.361102
548.000000	 19.086627	 23.332415
549.000000	 18.016103	 23.296973
550.000000	 17.765271	 23.260339
551.000000	 18.588648	 23.229604
552.000000	 19.675836	 23.206377
553.000000	 21.327178	 23.194174
554.000000	 25.531469	 23.209253
555.000000	 32.518874	 23.268931
556.000000	 41.016017	 23.381969
557.000000	 49.029333	 23.544294
558.000000	 54.174706	 23.736938
559.000000	 54.212024	 23.927408
560.000000	 50.309490	 24.091272
561.000000	 44.131968	 24.214980
562.000000	 35.355274	 24.283325
563.000000	 24.882389	 24.286978
564.000000	 15.197924	 24.231893
565.000000	 7.307058	 24.129936
566.000000	 2.208797	 23.998672
567.000000	 2.544439	 23.870968
568.000000	 7.964195	 23.776845
569.000000	 13.506572	 23.716431
570.000000	 14.036744	 23.659825
571.000000	 11.422652	 23.588679
572.000000	 9.677005	 23.508264
573.000000	 10.371953	 23.432768
574.000000	 13.338672	 23.375088
575.000000	 17.742134	 23.343082
576.000000	 22.078213	 23.335936
577.000000	 26.000269	 23.350904
578.000000	 29.960789	 23.387831
579.000000	 34.837734	 23.451442
580.000000	 40.085441	 23.543342
581.000000	 45.253267	 23.662628
582.000000	 49.462232	 23.803609
583.000000	 50.604410	 23.949266
584.000000	 47.766352	 24.078007
585.000000	 41.633207	 24.172389
586.000000	 33.548837	 24.222531
587.000000	 24.446968	 24.223725
588.000000	 16.696707	 24.183899
589.000000	 11.788428	 24.118660
590.000000	 9.306203	 24.041108
591.000000	 11.131218	 23.973869
592.000000	 17.417397	 23.939897
593.000000	 23.243467	 23.936307
594.000000	 23.666392	 23.934923
595.000000	 19.258441	 23.911064
596.000000	 14.496896	 23.863276
597.000000	 10.814086	 23.797371
598.000000	 7.857061	 23.717269
599.000000	 7.938667	 23.638376
600.000000	 11.205121	 23.576519
