# Nusselt number time series
# <Nu(t)> averaged between 100.000000 and 400.000000 with sampling frequency 1.000000
# time		 Nu(t)		 <Nu(t)>
100.000000	 24.502287	 24.502287
101.000000	 26.388507	 25.445397
102.000000	 27.391633	 26.094142
103.000000	 26.962956	 26.311346
104.000000	 25.134737	 26.076024
105.000000	 22.276528	 25.442775
106.000000	 18.553073	 24.458532
107.000000	 14.339200	 23.193615
108.000000	 10.344504	 21.765936
109.000000	 7.236290	 20.312971
110.000000	 5.077449	 18.927924
111.000000	 3.468963	 17.639677
112.000000	 2.055832	 16.440920
113.000000	 0.920803	 15.332340
114.000000	 0.476013	 14.341918
115.000000	 0.948252	 13.504814
116.000000	 2.204610	 12.840096
117.000000	 3.840291	 12.340107
118.000000	 5.479307	 11.979012
119.000000	 6.993607	 11.729742
120.000000	 8.457036	 11.573899
121.000000	 10.119749	 11.507801
122.000000	 12.179982	 11.537026
123.000000	 14.579672	 11.663803
124.000000	 17.140803	 11.882883
125.000000	 19.677343	 12.182670
126.000000	 21.917736	 12.543228
127.000000	 23.513866	 12.935037
128.000000	 24.088997	 13.319656
129.000000	 23.237033	 13.650235
130.000000	 20.991567	 13.887052
131.000000	 18.214485	 14.022285
132.000000	 15.962845	 14.081090
133.000000	 14.399151	 14.090444
134.000000	 12.965571	 14.058305
135.000000	 11.323189	 13.982330
136.000000	 9.519856	 13.861722
137.000000	 7.782535	 13.701744
138.000000	 6.345985	 13.513134
139.000000	 5.300580	 13.307821
140.000000	 4.752907	 13.099164
141.000000	 4.528068	 12.895090
142.000000	 4.107581	 12.690730
143.000000	 3.338608	 12.478181
144.000000	 2.735390	 12.261675
145.000000	 2.856978	 12.057225
146.000000	 3.950628	 11.884744
147.000000	 5.959168	 11.761295
148.000000	 8.609440	 11.696971
149.000000	 11.719324	 11.697418
150.000000	 15.066384	 11.763476
151.000000	 18.463101	 11.892315
152.000000	 21.862550	 12.080433
153.000000	 25.124467	 12.321989
154.000000	 27.932465	 12.605816
155.000000	 29.851937	 12.913782
156.000000	 30.462045	 13.221647
157.000000	 29.564542	 13.503421
158.000000	 27.252558	 13.736457
159.000000	 23.986780	 13.907296
160.000000	 20.328290	 14.012558
161.000000	 16.635419	 14.054862
162.000000	 13.025752	 14.038527
163.000000	 9.509708	 13.967764
164.000000	 6.135587	 13.847269
165.000000	 3.074856	 13.684051
166.000000	 0.607273	 13.488875
167.000000	 -1.056309	 13.274975
168.000000	 -1.665997	 13.058439
169.000000	 -0.921517	 12.858726
170.000000	 0.961745	 12.691163
171.000000	 3.339992	 12.561285
172.000000	 5.879795	 12.469758
173.000000	 8.482051	 12.415870
174.000000	 11.029376	 12.397384
175.000000	 13.413947	 12.410759
176.000000	 15.486620	 12.450706
177.000000	 17.025614	 12.509358
178.000000	 17.837566	 12.576804
179.000000	 17.860081	 12.642845
180.000000	 17.208980	 12.699217
181.000000	 16.217119	 12.742118
182.000000	 15.289572	 12.772810
183.000000	 14.775398	 12.796651
184.000000	 14.871106	 12.821056
185.000000	 15.515018	 12.852381
186.000000	 16.402673	 12.893189
187.000000	 17.133910	 12.941379
188.000000	 17.478999	 12.992364
189.000000	 17.446218	 13.041851
190.000000	 17.241477	 13.088001
191.000000	 16.844495	 13.128832
192.000000	 15.993048	 13.159630
193.000000	 14.634719	 13.175323
194.000000	 12.987707	 13.173348
195.000000	 11.369381	 13.154556
196.000000	 9.846836	 13.120456
197.000000	 8.477041	 13.073074
198.000000	 7.380896	 13.015578
199.000000	 6.566645	 12.951088
200.000000	 6.252490	 12.884766
201.000000	 6.719799	 12.824325
202.000000	 7.817841	 12.775718
203.000000	 9.361959	 12.742893
204.000000	 11.267455	 12.728842
205.000000	 13.365511	 12.734848
206.000000	 15.326965	 12.759073
207.000000	 16.818067	 12.796657
208.000000	 17.689519	 12.841545
209.000000	 18.000141	 12.888442
210.000000	 18.041579	 12.934866
211.000000	 18.091090	 12.980904
212.000000	 18.041966	 13.025692
213.000000	 17.662882	 13.066369
214.000000	 16.976067	 13.100367
215.000000	 16.145642	 13.126619
216.000000	 15.453028	 13.146503
217.000000	 15.171976	 13.163668
218.000000	 15.309395	 13.181699
219.000000	 15.525373	 13.201230
220.000000	 15.500011	 13.220228
221.000000	 15.127335	 13.235860
222.000000	 14.384144	 13.245196
223.000000	 13.332098	 13.245896
224.000000	 12.076874	 13.236544
225.000000	 10.829738	 13.217443
226.000000	 9.958702	 13.191783
227.000000	 9.652204	 13.164130
228.000000	 9.877471	 13.138652
229.000000	 10.395885	 13.117554
230.000000	 10.833572	 13.100119
231.000000	 10.874991	 13.083262
232.000000	 10.545941	 13.064185
233.000000	 10.422099	 13.044467
234.000000	 11.077503	 13.029897
235.000000	 12.288507	 13.024446
236.000000	 13.529970	 13.028136
237.000000	 14.648885	 13.039880
238.000000	 15.666273	 13.058775
239.000000	 16.476603	 13.083188
240.000000	 16.890063	 13.110188
241.000000	 16.835510	 13.136422
242.000000	 16.383805	 13.159131
243.000000	 15.690426	 13.176710
244.000000	 14.893905	 13.188552
245.000000	 14.023622	 13.194272
246.000000	 13.061468	 13.193369
247.000000	 12.128851	 13.186176
248.000000	 11.440761	 13.174462
249.000000	 11.107414	 13.160681
250.000000	 11.264011	 13.148121
251.000000	 11.924238	 13.140069
252.000000	 12.823502	 13.138000
253.000000	 13.627989	 13.141181
254.000000	 14.219593	 13.148139
255.000000	 14.648311	 13.157755
256.000000	 14.936942	 13.169088
257.000000	 15.070022	 13.181119
258.000000	 15.051123	 13.192880
259.000000	 14.876803	 13.203405
260.000000	 14.556994	 13.211812
261.000000	 14.126993	 13.217461
262.000000	 13.672627	 13.220254
263.000000	 13.379012	 13.221222
264.000000	 13.349104	 13.221997
265.000000	 13.466464	 13.223469
266.000000	 13.542331	 13.225379
267.000000	 13.467044	 13.226817
268.000000	 13.134529	 13.226271
269.000000	 12.621583	 13.222714
270.000000	 12.297451	 13.217303
271.000000	 12.305668	 13.212003
272.000000	 12.410108	 13.207368
273.000000	 12.384322	 13.202638
274.000000	 12.262972	 13.197268
275.000000	 12.299770	 13.192169
276.000000	 12.684245	 13.189299
277.000000	 13.191665	 13.189312
278.000000	 13.636436	 13.191810
279.000000	 14.114562	 13.196937
280.000000	 14.747447	 13.205503
281.000000	 15.475849	 13.217978
282.000000	 16.173289	 13.234127
283.000000	 16.735469	 13.253156
284.000000	 16.971493	 13.273255
285.000000	 16.838236	 13.292422
286.000000	 16.393926	 13.309007
287.000000	 15.636749	 13.321389
288.000000	 14.631011	 13.328318
289.000000	 13.565075	 13.329564
290.000000	 12.635130	 13.325928
291.000000	 11.941069	 13.318715
292.000000	 11.408164	 13.308816
293.000000	 10.806608	 13.295918
294.000000	 10.079939	 13.279426
295.000000	 9.543013	 13.260363
296.000000	 9.595303	 13.241758
297.000000	 10.320787	 13.227006
298.000000	 11.525000	 13.218453
299.000000	 12.947143	 13.217097
300.000000	 14.323238	 13.222600
301.000000	 15.418322	 13.233470
302.000000	 16.143722	 13.247806
303.000000	 16.535724	 13.263923
304.000000	 16.585023	 13.280124
305.000000	 16.310883	 13.294836
306.000000	 15.761484	 13.306752
307.000000	 15.086585	 13.315309
308.000000	 14.437147	 13.320677
309.000000	 13.811889	 13.323016
310.000000	 13.175956	 13.322319
311.000000	 12.628121	 13.319044
312.000000	 12.291584	 13.314221
313.000000	 12.286013	 13.309416
314.000000	 12.634139	 13.306275
315.000000	 13.226284	 13.305905
316.000000	 13.949538	 13.308871
317.000000	 14.591899	 13.314756
318.000000	 14.985726	 13.322386
319.000000	 15.102649	 13.330478
320.000000	 14.987666	 13.337977
321.000000	 14.717724	 13.344192
322.000000	 14.332902	 13.348626
323.000000	 13.831756	 13.350783
324.000000	 13.255563	 13.350359
325.000000	 12.611821	 13.347091
326.000000	 11.864362	 13.340560
327.000000	 11.110244	 13.330778
328.000000	 10.516704	 13.318489
329.000000	 10.265436	 13.305215
330.000000	 10.495886	 13.293053
331.000000	 11.203512	 13.284047
332.000000	 12.238872	 13.279561
333.000000	 13.354052	 13.279879
334.000000	 14.377541	 13.284550
335.000000	 15.238186	 13.292828
336.000000	 15.908285	 13.303864
337.000000	 16.341950	 13.316629
338.000000	 16.467951	 13.329814
339.000000	 16.228769	 13.341893
340.000000	 15.647789	 13.351461
341.000000	 14.832064	 13.357580
342.000000	 13.915497	 13.359876
343.000000	 13.053055	 13.358618
344.000000	 12.347308	 13.354490
345.000000	 11.936375	 13.348726
346.000000	 12.007335	 13.343295
347.000000	 12.621267	 13.340384
348.000000	 13.603912	 13.341442
349.000000	 14.629393	 13.346594
350.000000	 15.465862	 13.355037
351.000000	 16.015762	 13.365595
352.000000	 16.245081	 13.376977
353.000000	 16.080982	 13.387622
354.000000	 15.413935	 13.395569
355.000000	 14.315271	 13.399161
356.000000	 13.068981	 13.397877
357.000000	 12.050410	 13.392654
358.000000	 11.520577	 13.385426
359.000000	 11.462866	 13.378031
360.000000	 11.639874	 13.371372
361.000000	 11.773688	 13.365274
362.000000	 11.846138	 13.359498
363.000000	 12.177786	 13.355021
364.000000	 12.975218	 13.353588
365.000000	 14.087976	 13.356349
366.000000	 15.174680	 13.363159
367.000000	 15.940876	 13.372778
368.000000	 16.308733	 13.383692
369.000000	 16.319263	 13.394564
370.000000	 16.013980	 13.404230
371.000000	 15.441205	 13.411719
372.000000	 14.694192	 13.416417
373.000000	 13.870528	 13.418074
374.000000	 13.119810	 13.416989
375.000000	 12.566345	 13.413907
376.000000	 12.210758	 13.409564
377.000000	 11.993668	 13.404471
378.000000	 11.905309	 13.399097
379.000000	 12.083542	 13.394399
380.000000	 12.676873	 13.391846
381.000000	 13.628551	 13.392685
382.000000	 14.669801	 13.397198
383.000000	 15.527230	 13.404698
384.000000	 16.072686	 13.414059
385.000000	 16.252074	 13.423982
386.000000	 16.059645	 13.433166
387.000000	 15.549970	 13.440516
388.000000	 14.845803	 13.445378
389.000000	 14.034914	 13.447411
390.000000	 13.197610	 13.446553
391.000000	 12.468398	 13.443203
392.000000	 11.935735	 13.438058
393.000000	 11.577207	 13.431729
394.000000	 11.333847	 13.424617
395.000000	 11.301291	 13.417444
396.000000	 11.640371	 13.411460
397.000000	 12.356008	 13.407919
398.000000	 13.260215	 13.407425
399.000000	 14.083312	 13.409678
400.000000	 14.751983	 13.414137
