# Reynolds number time series
# <Re(t)> averaged between 100.000000 and 200.000000 with sampling frequency 1.000000
# time		 Re_uMag(t)	 <Re_uMag(t)>	 Re_uxMag(t)	 <Re_uxMag(t)>	 Re_uzMag(t)	 <Re_uzMag(t)>	  Re_uRMS(t)	 <Re_uRMS(t)>	 Re_uxRMS(t)	 <Re_uxRMS(t)>	 Re_uzRMS(t)	 <Re_uzRMS(t)>	 
100.000000	 1970.485337	 1970.485337	 1593.812035	 1593.812035	 1658.258194	 1658.258194	 2110.118281	 2110.118281	 1924.098305	 1924.098305	 1933.653063	 1933.653063	 
101.000000	 1961.980887	 1960.364844	 1601.344156	 1597.291493	 1680.927730	 1669.496727	 2135.666070	 2120.444717	 1924.271456	 1924.184880	 1946.305302	 1939.770637	 
102.000000	 1972.341501	 1955.691189	 1572.797901	 1589.126962	 1687.337437	 1675.330220	 2121.318504	 2112.532778	 1918.883339	 1922.284524	 1945.334818	 1940.897496	 
103.000000	 1973.600357	 1960.001895	 1551.017374	 1578.383794	 1685.853024	 1677.829820	 2120.189557	 2102.590426	 1906.176063	 1918.257409	 1950.772207	 1943.124615	 
104.000000	 1963.909424	 1960.689765	 1584.406813	 1571.888745	 1695.699461	 1681.387414	 2094.340069	 2097.366388	 1893.700668	 1912.820172	 1942.833812	 1943.066455	 
105.000000	 1936.447792	 1956.348880	 1604.727815	 1571.930109	 1697.887207	 1683.918459	 2084.194286	 2095.156991	 1937.820241	 1905.926919	 1942.328162	 1942.911486	 
106.000000	 1932.743170	 1949.330603	 1613.089848	 1573.496185	 1694.244517	 1684.767642	 2068.393521	 2090.752954	 1958.150519	 1903.061787	 1943.570456	 1942.711235	 
107.000000	 1939.689057	 1939.488703	 1593.411923	 1573.672886	 1695.860915	 1684.539224	 2081.075031	 2085.059206	 1941.719535	 1902.233896	 1936.468346	 1941.038103	 
108.000000	 1956.876614	 1929.892870	 1563.675187	 1569.156730	 1706.551932	 1684.617703	 2085.134661	 2079.960529	 1900.418891	 1901.680804	 1942.582685	 1938.877544	 
109.000000	 2011.437993	 1923.199509	 1570.562327	 1566.133220	 1722.473095	 1685.752518	 2128.054758	 2077.154763	 1900.055184	 1901.289570	 1952.647382	 1937.834134	 
110.000000	 2057.881907	 1920.929008	 1587.444643	 1567.447466	 1734.747689	 1687.712747	 2166.194757	 2077.165269	 1926.873797	 1903.019010	 1961.806478	 1938.087610	 
111.000000	 2060.758082	 1920.883838	 1612.739516	 1571.189926	 1740.554591	 1690.233780	 2174.105770	 2078.930968	 1947.462194	 1906.500003	 1970.132283	 1939.349164	 
112.000000	 2049.435688	 1927.695353	 1654.527467	 1577.600506	 1736.460723	 1692.478681	 2169.215621	 2079.986834	 1976.807840	 1911.731147	 1974.591019	 1941.051979	 
113.000000	 2044.653414	 1934.024076	 1680.109736	 1584.922594	 1725.854161	 1694.053473	 2160.605363	 2078.983895	 2006.924094	 1918.530644	 1972.865742	 1942.804171	 
114.000000	 2039.977353	 1937.772418	 1706.159538	 1592.908522	 1721.689997	 1695.608928	 2183.989473	 2076.330710	 2034.490086	 1926.261273	 1969.070695	 1944.398088	 
115.000000	 2032.049929	 1939.492933	 1718.628694	 1600.598469	 1724.967651	 1697.381221	 2203.143977	 2072.699403	 2054.350476	 1934.266848	 1961.884870	 1945.441224	 
116.000000	 2009.934578	 1940.108268	 1711.062707	 1606.602819	 1727.530632	 1699.149482	 2204.540380	 2069.531097	 2060.164091	 1941.593980	 1951.678305	 1945.795231	 
117.000000	 1983.578436	 1940.554187	 1683.343341	 1609.898048	 1730.456513	 1700.888762	 2165.082216	 2072.473920	 2062.056896	 1947.720014	 1947.171987	 1945.871717	 
118.000000	 1978.883311	 1939.616742	 1660.149175	 1611.477954	 1734.258744	 1702.599090	 2132.060143	 2073.943995	 2051.116637	 1952.603204	 1954.102614	 1946.191239	 
119.000000	 2018.375082	 1938.452692	 1641.469656	 1612.400518	 1739.249294	 1704.162780	 2129.083619	 2073.646771	 2020.260630	 1955.332174	 1964.758848	 1946.785638	 
120.000000	 2025.537194	 1936.562259	 1637.479023	 1612.595427	 1743.743613	 1705.553325	 2135.826239	 2071.813194	 1982.126168	 1955.895291	 1983.048241	 1948.100016	 
121.000000	 2029.911625	 1934.398753	 1679.091065	 1611.331970	 1742.219801	 1706.551131	 2122.345745	 2068.679874	 1960.963480	 1955.052856	 1996.707626	 1949.977804	 
122.000000	 2045.323957	 1936.211835	 1686.789153	 1609.165662	 1734.094356	 1707.349128	 2130.877083	 2068.642928	 1976.707001	 1953.035918	 2004.105014	 1952.069149	 
123.000000	 2037.564813	 1940.249335	 1638.115720	 1605.944259	 1733.331244	 1708.167591	 2128.663693	 2070.961609	 1921.226152	 1950.131056	 1996.256403	 1953.675717	 
124.000000	 2051.122854	 1944.383457	 1627.059515	 1604.052576	 1726.931638	 1708.830409	 2133.216259	 2072.950929	 1897.401390	 1947.133131	 1990.050622	 1954.972318	 
125.000000	 2056.675471	 1948.698817	 1627.170367	 1604.739440	 1717.229807	 1709.153462	 2136.794672	 2074.528639	 1907.987906	 1945.621660	 1992.898678	 1956.414246	 
126.000000	 2043.421129	 1952.207051	 1667.926707	 1606.997616	 1707.389944	 1708.997678	 2119.983517	 2075.533109	 1962.716494	 1946.193214	 1987.696850	 1957.516007	 
127.000000	 2038.120706	 1954.179103	 1712.572689	 1610.513964	 1698.329670	 1708.372482	 2134.412284	 2076.302391	 2011.045610	 1948.195107	 1970.817159	 1957.908824	 
128.000000	 2102.543725	 1954.842764	 1782.939470	 1615.363377	 1690.694768	 1707.428829	 2229.189070	 2076.728319	 2058.240968	 1951.118853	 1957.462072	 1957.803495	 
129.000000	 2109.732361	 1954.845749	 1818.593058	 1621.547246	 1685.740959	 1706.382029	 2262.136988	 2076.618302	 2117.672419	 1955.768167	 1947.811472	 1957.385499	 
130.000000	 2099.076899	 1954.025983	 1809.204499	 1627.577453	 1682.103028	 1705.289636	 2256.544481	 2077.736062	 2150.784294	 1962.031703	 1944.226073	 1956.669396	 
131.000000	 2095.887206	 1954.057063	 1806.192190	 1633.127976	 1677.185097	 1704.017421	 2256.418212	 2082.838863	 2171.717143	 1968.516366	 1935.958512	 1955.787740	 
132.000000	 2075.804537	 1957.472999	 1794.843661	 1638.005962	 1672.318115	 1702.663486	 2251.002447	 2087.456567	 2172.339417	 1974.418440	 1925.385809	 1954.737637	 
133.000000	 2076.544501	 1960.615956	 1743.991478	 1640.454953	 1667.873421	 1701.227098	 2236.627010	 2091.746621	 2153.226591	 1978.778406	 1920.694840	 1953.685947	 
134.000000	 2067.990650	 1963.598560	 1752.712075	 1641.123887	 1672.680727	 1700.147173	 2233.506561	 2095.389105	 2099.236792	 1981.118089	 1926.485889	 1952.839811	 
135.000000	 2077.565111	 1966.246119	 1781.528128	 1640.548401	 1679.220729	 1699.423413	 2201.168807	 2097.865966	 2084.548289	 1981.743556	 1932.292670	 1952.125393	 
136.000000	 2096.830604	 1969.223188	 1798.501311	 1639.049854	 1681.622845	 1698.863251	 2211.746141	 2098.850380	 2111.711869	 1981.013596	 1937.997482	 1951.606686	 
137.000000	 2084.584698	 1972.047862	 1777.678284	 1637.810829	 1678.930403	 1698.319162	 2198.503793	 2099.117259	 2117.941977	 1979.410372	 1937.963402	 1951.172909	 
138.000000	 2055.000152	 1973.873234	 1772.352331	 1637.207202	 1674.764423	 1697.715194	 2169.497900	 2099.104315	 2102.699195	 1977.376077	 1941.982814	 1950.910137	 
139.000000	 2043.725708	 1974.782762	 1801.476002	 1636.631573	 1673.936543	 1697.092939	 2197.592024	 2098.589693	 2126.632117	 1974.797318	 1953.583031	 1950.969375	 
140.000000	 2067.790528	 1974.531607	 1819.664126	 1636.189464	 1675.820775	 1696.470244	 2248.223597	 2097.755936	 2177.109557	 1971.888862	 1949.606959	 1950.821162	 
141.000000	 2112.293996	 1973.738553	 1834.569183	 1636.024972	 1676.770553	 1695.793092	 2273.600913	 2096.064892	 2194.739810	 1969.371388	 1926.272025	 1950.077859	 
142.000000	 2149.594460	 1972.778192	 1833.353581	 1636.162837	 1677.909802	 1695.082954	 2290.093664	 2093.581812	 2216.364922	 1967.860770	 1907.143506	 1948.924618	 
143.000000	 2154.171801	 1971.790422	 1837.312723	 1637.113660	 1679.389755	 1694.376720	 2301.607767	 2091.281612	 2238.280140	 1967.204849	 1903.417354	 1947.697785	 
144.000000	 2128.941238	 1970.171913	 1850.154717	 1641.722138	 1681.410097	 1693.700086	 2296.844393	 2089.629955	 2232.576233	 1966.694667	 1903.354476	 1946.491752	 
145.000000	 2142.846912	 1968.307223	 1851.869365	 1646.273904	 1683.280170	 1693.076455	 2289.785575	 2087.920805	 2189.812459	 1966.280765	 1903.235706	 1945.354266	 
146.000000	 2130.526215	 1966.565672	 1828.354552	 1650.133943	 1683.836622	 1692.497102	 2277.332773	 2086.249673	 2149.198706	 1966.259114	 1919.017896	 1944.413125	 
147.000000	 2124.449633	 1965.137804	 1756.873243	 1652.317204	 1684.901964	 1692.031238	 2247.387158	 2084.479831	 2102.570860	 1966.470107	 1931.036925	 1943.811390	 
148.000000	 2116.818066	 1964.809899	 1751.890786	 1654.084028	 1689.236981	 1691.697677	 2229.725414	 2083.143796	 2049.376908	 1966.687414	 1935.233116	 1943.433524	 
149.000000	 2091.973873	 1966.509133	 1772.840770	 1656.198438	 1693.438087	 1691.567558	 2216.637916	 2082.724811	 2036.665020	 1967.139510	 1943.467969	 1943.309142	 
150.000000	 2071.378611	 1967.166098	 1786.874476	 1658.528044	 1698.114643	 1691.655573	 2207.175820	 2083.811744	 2057.345872	 1968.386903	 1952.642239	 1943.475051	 
151.000000	 2076.180144	 1967.385794	 1803.280216	 1660.865030	 1706.359749	 1691.937233	 2213.493574	 2086.028495	 2094.473579	 1970.356451	 1963.606776	 1943.853731	 
152.000000	 2123.933192	 1969.202828	 1823.298395	 1662.830513	 1716.620463	 1692.334509	 2261.886758	 2089.204818	 2103.735790	 1972.705982	 1965.568760	 1944.226766	 
153.000000	 2164.812219	 1972.549562	 1818.237377	 1664.137106	 1725.349886	 1692.771606	 2275.983307	 2092.659828	 2153.828953	 1975.909443	 1967.791206	 1944.571450	 
154.000000	 2159.550740	 1975.873803	 1858.212110	 1665.436689	 1731.250773	 1693.227484	 2319.396197	 2096.412443	 2184.462680	 1979.631847	 1968.326617	 1944.852099	 
155.000000	 2181.700602	 1979.212060	 1887.194802	 1666.412705	 1733.534990	 1693.684457	 2349.181862	 2100.672321	 2211.028206	 1983.479228	 1970.058555	 1945.075999	 
156.000000	 2216.971137	 1983.209039	 1882.631321	 1666.826530	 1732.148420	 1694.196193	 2350.819415	 2105.054985	 2201.858800	 1987.250978	 1970.561266	 1945.360204	 
157.000000	 2223.152067	 1987.139230	 1863.140535	 1667.160779	 1728.221418	 1694.695287	 2344.334056	 2109.122413	 2203.340024	 1990.952990	 1971.794494	 1945.671785	 
158.000000	 2192.147299	 1990.412857	 1856.658864	 1669.642653	 1724.028194	 1695.140598	 2319.341860	 2112.608612	 2197.992565	 1994.461155	 1968.847906	 1945.988901	 
159.000000	 2128.257509	 1992.695101	 1859.641471	 1672.737117	 1720.258215	 1695.536765	 2285.892675	 2115.320154	 2187.865588	 1997.684562	 1961.294100	 1946.214986	 
160.000000	 2100.313226	 1994.223968	 1836.602222	 1675.135684	 1716.935171	 1695.886108	 2241.900710	 2117.327141	 2166.340194	 2000.398084	 1954.001336	 1946.335717	 
161.000000	 2079.244460	 1995.090328	 1791.576175	 1676.569651	 1714.929984	 1696.183455	 2203.219936	 2118.653513	 2136.714444	 2002.200994	 1952.829712	 1946.440459	 
162.000000	 2096.305352	 1995.445428	 1804.643706	 1677.414300	 1715.206885	 1696.422773	 2231.146998	 2119.020635	 2104.506218	 2003.321788	 1966.979771	 1946.754343	 
163.000000	 2140.819734	 1995.287675	 1812.315394	 1677.792804	 1718.556816	 1696.636469	 2264.114975	 2118.711629	 2080.598763	 2003.919276	 1966.592299	 1947.033522	 
164.000000	 2190.949964	 1994.819467	 1854.709891	 1678.300781	 1722.961064	 1696.872331	 2306.279198	 2117.927612	 2113.489227	 2004.304525	 1965.302787	 1947.245187	 
165.000000	 2206.613408	 1994.070401	 1904.771464	 1681.487817	 1726.125579	 1697.162930	 2328.635021	 2116.938560	 2152.943352	 2004.940130	 1967.318758	 1947.454320	 
166.000000	 2216.891162	 1992.692533	 1896.700863	 1684.428566	 1727.469831	 1697.453731	 2312.009040	 2116.167231	 2153.885824	 2005.923429	 1965.541680	 1947.609637	 
167.000000	 2194.035430	 1991.089647	 1875.203329	 1687.143351	 1727.554376	 1697.732894	 2292.636545	 2115.375370	 2154.532123	 2007.202740	 1966.064935	 1947.735812	 
168.000000	 2161.079622	 1990.028928	 1866.416701	 1689.613313	 1726.147878	 1697.993959	 2283.670670	 2114.863717	 2163.266936	 2008.578158	 1961.258833	 1947.808803	 
169.000000	 2147.487823	 1989.817903	 1869.573807	 1692.184177	 1723.229698	 1698.228960	 2277.338997	 2114.715384	 2173.786405	 2009.660258	 1955.616858	 1947.832489	 
170.000000	 2136.899244	 1990.216598	 1859.165750	 1694.484099	 1720.434795	 1698.447803	 2267.975432	 2114.979648	 2176.458330	 2010.377611	 1950.344652	 1947.823047	 
171.000000	 2129.913244	 1991.177407	 1833.646095	 1696.353536	 1720.086359	 1698.684001	 2247.946170	 2115.386335	 2163.588766	 2011.088406	 1953.992325	 1947.882542	 
172.000000	 2106.052328	 1992.614456	 1822.940411	 1697.965714	 1723.488386	 1698.988647	 2228.817394	 2115.991349	 2153.296446	 2011.796855	 1968.251254	 1948.154666	 
173.000000	 2105.129863	 1993.936806	 1817.587198	 1699.268107	 1730.171698	 1699.400848	 2212.308921	 2117.072777	 2152.755903	 2012.827158	 1978.181287	 1948.557592	 
174.000000	 2110.781747	 1995.198363	 1820.522860	 1700.311592	 1738.525295	 1699.922507	 2230.076723	 2118.551756	 2157.638234	 2014.253461	 1984.164428	 1949.032350	 
175.000000	 2103.619200	 1996.278788	 1832.605086	 1701.388688	 1745.831651	 1700.512711	 2258.377912	 2120.167979	 2162.525946	 2016.079574	 1987.088521	 1949.533089	 
176.000000	 2095.106145	 1997.454295	 1841.016265	 1702.520582	 1750.446099	 1701.121886	 2270.586784	 2121.798153	 2178.648055	 2018.089612	 1989.716381	 1950.026473	 
177.000000	 2115.469654	 1998.966298	 1852.284493	 1703.823864	 1752.750000	 1701.723782	 2259.119947	 2123.472856	 2195.537277	 2019.868228	 1999.012085	 1950.606453	 
178.000000	 2146.013635	 2000.827657	 1872.126458	 1705.194197	 1752.329621	 1702.294742	 2259.803783	 2124.957003	 2212.019440	 2021.794854	 1996.238800	 1951.139658	 
179.000000	 2129.455283	 2002.413732	 1864.915485	 1706.610669	 1748.886088	 1702.818072	 2285.634022	 2126.561506	 2212.513157	 2024.178798	 1992.427153	 1951.611986	 
180.000000	 2131.782184	 2003.774848	 1885.570611	 1708.138833	 1743.416846	 1703.280062	 2314.194579	 2128.426192	 2224.070304	 2026.644244	 1982.753974	 1951.983672	 
181.000000	 2135.510616	 2005.029378	 1883.006156	 1709.896439	 1736.847904	 1703.669752	 2313.137836	 2130.301363	 2214.736422	 2028.906570	 1973.399518	 1952.244532	 
182.000000	 2123.637727	 2006.139998	 1880.245880	 1711.917388	 1730.070288	 1703.982599	 2274.338547	 2131.818771	 2193.986043	 2030.892940	 1964.830639	 1952.396172	 
183.000000	 2108.270674	 2007.066985	 1869.273331	 1713.787192	 1723.993345	 1704.220823	 2263.980282	 2132.932036	 2174.903451	 2032.464941	 1964.750696	 1952.543250	 
184.000000	 2120.778905	 2007.701889	 1830.652579	 1715.151201	 1720.540029	 1704.409926	 2240.284185	 2133.867538	 2164.249507	 2033.441975	 1970.403090	 1952.747850	 
185.000000	 2123.227987	 2008.052900	 1844.981076	 1716.513844	 1720.570807	 1704.582408	 2253.473167	 2134.777612	 2149.573079	 2033.986246	 1974.688873	 1952.974400	 
186.000000	 2128.292097	 2008.346908	 1856.425879	 1718.035852	 1722.851217	 1704.760015	 2266.930109	 2135.282815	 2157.279797	 2034.350367	 1982.644637	 1953.268737	 
187.000000	 2154.185350	 2008.500552	 1847.165773	 1719.498290	 1725.495343	 1704.949639	 2263.837105	 2135.438112	 2170.451994	 2034.698826	 1983.852376	 1953.596961	 
188.000000	 2144.621894	 2008.572333	 1857.438076	 1721.048175	 1727.280979	 1705.141338	 2261.908333	 2135.450688	 2161.196627	 2035.125303	 1980.396224	 1953.874285	 
189.000000	 2141.540721	 2008.767701	 1840.951738	 1722.374552	 1727.325237	 1705.315623	 2255.281422	 2135.515287	 2156.661892	 2035.905507	 1974.924924	 1954.070468	 
190.000000	 2138.313467	 2008.685548	 1881.078150	 1724.100549	 1725.870068	 1705.463468	 2269.219276	 2135.843677	 2158.038510	 2037.033250	 1970.203519	 1954.204347	 
191.000000	 2140.642207	 2008.431141	 1911.738247	 1726.116329	 1724.356893	 1705.603534	 2294.333414	 2136.211768	 2199.443704	 2038.728551	 1964.207224	 1954.276303	 
192.000000	 2143.128759	 2008.314370	 1906.068692	 1728.041482	 1723.827638	 1705.757173	 2291.110014	 2136.509877	 2238.668704	 2040.785685	 1962.691180	 1954.344387	 
193.000000	 2143.756805	 2009.091606	 1882.580464	 1729.685513	 1723.498631	 1705.922724	 2274.618796	 2137.219974	 2222.771358	 2042.617850	 1969.990838	 1954.486337	 
194.000000	 2138.470763	 2010.420307	 1867.559478	 1731.060929	 1723.009495	 1706.093358	 2269.821059	 2138.375517	 2193.266576	 2044.203626	 1974.726497	 1954.699391	 
195.000000	 2124.912966	 2011.402797	 1883.484017	 1732.486936	 1722.790411	 1706.265969	 2285.041253	 2139.739395	 2196.475515	 2045.765188	 1980.634769	 1954.964657	 
196.000000	 2150.246092	 2011.962675	 1878.163915	 1733.862687	 1722.322590	 1706.431501	 2286.290210	 2141.188230	 2193.724078	 2047.249755	 1989.071171	 1955.308901	 
197.000000	 2191.981217	 2013.083752	 1873.969482	 1735.095513	 1721.408869	 1706.578556	 2301.777432	 2142.772294	 2168.383270	 2048.458173	 1989.369137	 1955.650577	 
198.000000	 2202.388212	 2014.825264	 1899.261412	 1736.373049	 1722.020390	 1706.715036	 2321.781130	 2144.503268	 2170.133050	 2049.588763	 1989.252060	 1955.971861	 
199.000000	 2172.850792	 2016.262356	 1908.307686	 1737.658162	 1726.211123	 1706.872582	 2319.270776	 2146.231797	 2198.998762	 2051.008314	 1988.175567	 1956.272448	 
200.000000	 2148.512228	 2017.569889	 1894.419064	 1738.750168	 1730.077685	 1707.060281	 2322.076306	 2147.635948	 2233.220184	 2052.727616	 1983.967935	 1956.527300	 
